»»»»»»»»»»»»»»»»»»»»»»»»»»»»»»»»»»»» Hysteresis ««««««««««««««««««««««««««««««««««««
»»»  Version:			4.6.11
»»»  Vision Version:		4.6.5 (R)
»»»  Vision Compiled:		7 December 2011
»»»  Driver Version:		4.6.17
»»»  Tester Name:		PPM21211-813
»»»  Tester S/N:		PPM21211-813                    
»»»  Internal Amp Type:		No Internal Amp
»»»  Internal Amp S/N:		100000
»»»  Execution Count:		0
»»»»»»»»»»»»»»»»»»»»»»»»»»»»»»»»»»»»»»»»»»««««««««««««««««««««««««««««««««««««««««««

Stored:				5/16/2024 - 20:53:27
Configured:			05/16/24 07:33:06 PM
Executed:			05/16/24 08:52:54 PM

»»»»»»»»»»»»»»»»»»»»»»»»»»»»»»»»»»» Sample Info ««««««««««««««««««««««««««««««««««««
Sample Name:			
Lot Name:			
Wafer Name:			
Die Row/Column:			0/0
Capacitor Number:		0
Sample Area (cm2):		9.87e-001
Sample Thickness (µm):		1.11e+003

Mux Loop Adjustment:		Disabled

Amplifier:			High Voltage (HVA)
HVI Channel/Port:		1/1
Drive Gain Factor:			1000.00r
Drive Voltage Limit:			4000.00r

»»»»»»»»»»»»»»»»»»»»»»»»»»»»»»»»»»» Tester Info «««««««««««««««««««««««««««««««««««
Tester Name:			PPM21211-813
Tester Serial Number:		PPM21211-813                    
Return Signal Amp. Level:	0.00019

»»»»»»»»»»»»»»»»»»»»»»»»»»»»»»»» Hysteresis Info ««««««««««««««««««««««««««««««««««
Task Name:			Hyst-2
Volts:				2216.00
Field:				20.00 (kV/cm)
Hysteresis Period (ms):		1.00e+002
Preset:				Enabled
Preset Delay (ms):		1.00e+002
Profile:			Standard Bipolar

Sensor Offset:			0.00  
Sensor Scale:			-0.05 
Sensor Impedance (Ohms):	50
Sensor Label:			%

»»»»»»»»»»»»»»»»»»»»»»»»»»»»»»»»»»»»»» Data «««««««««««««««««««««««««««««««««««««««
Points:				1017

Valid Data

Point		Time (ms)	Field (kV/cm)	Measured Polarization	Sensor
   1		9.8500e-002	-0.0083		-0.4303		-6.8899e-003
   2		1.9700e-001	0.0048		-0.4128		-6.7740e-003
   3		2.9550e-001	0.0448		-0.3921		-6.8413e-003
   4		3.9400e-001	0.0744		-0.3596		-6.8712e-003
   5		4.9250e-001	0.1343		-0.3246		-6.8076e-003
   6		5.9100e-001	0.1770		-0.2856		-6.8450e-003
   7		6.8950e-001	0.2389		-0.2360		-6.7964e-003
   8		7.8800e-001	0.3043		-0.1852		-6.8450e-003
   9		8.8650e-001	0.3904		-0.1274		-6.7441e-003
  10		9.8500e-001	0.4483		-0.0657		-6.7366e-003
  11		1.0835e+000	0.5144		-0.0035		-6.7702e-003
  12		1.1820e+000	0.5750		0.0616		-6.7702e-003
  13		1.2805e+000	0.6610		0.1339		-6.8488e-003
  14		1.3790e+000	0.7209		0.2039		-6.8674e-003
  15		1.4775e+000	0.7987		0.2831		-6.7665e-003
  16		1.5760e+000	0.8759		0.3596		-6.7665e-003
  17		1.6745e+000	0.9633		0.4425		-6.7665e-003
  18		1.7730e+000	1.0411		0.5327		-6.7291e-003
  19		1.8715e+000	1.1045		0.6169		-6.7329e-003
  20		1.9700e+000	1.1892		0.7035		-6.7702e-003
  21		2.0685e+000	1.2821		0.7892		-6.8974e-003
  22		2.1670e+000	1.3372		0.8856		-6.6319e-003
  23		2.2655e+000	1.4130		0.9718		-6.7628e-003
  24		2.3640e+000	1.4949		1.0608		-6.6506e-003
  25		2.4625e+000	1.5830		1.1551		-6.6506e-003
  26		2.5610e+000	1.6443		1.2474		-6.7067e-003
  27		2.6595e+000	1.7249		1.3315		-6.6843e-003
  28		2.7580e+000	1.7999		1.4226		-6.3927e-003
  29		2.8565e+000	1.8812		1.5096		-6.5721e-003
  30		2.9550e+000	1.9741		1.6006		-6.6095e-003
  31		3.0535e+000	2.0458		1.6888		-6.4749e-003
  32		3.1520e+000	2.1167		1.7738		-6.4450e-003
  33		3.2505e+000	2.2027		1.8588		-6.3815e-003
  34		3.3490e+000	2.2771		1.9388		-6.3441e-003
  35		3.4475e+000	2.3597		2.0238		-6.6020e-003
  36		3.5460e+000	2.4382		2.1080		-6.3104e-003
  37		3.6445e+000	2.5271		2.1933		-6.2656e-003
  38		3.7430e+000	2.5890		2.2718		-6.2843e-003
  39		3.8415e+000	2.6620		2.3466		-6.0226e-003
  40		3.9400e+000	2.7385		2.4258		-6.0151e-003
  41		4.0385e+000	2.8349		2.4978		-5.9740e-003
  42		4.1370e+000	2.9010		2.5807		-5.9964e-003
  43		4.2355e+000	2.9898		2.6502		-5.8992e-003
  44		4.3340e+000	3.0531		2.7271		-5.6898e-003
  45		4.4325e+000	3.1378		2.7994		-5.7085e-003
  46		4.5310e+000	3.2232		2.8738		-5.4207e-003
  47		4.6295e+000	3.2845		2.9470		-5.6151e-003
  48		4.7280e+000	3.3850		3.0198		-5.3908e-003
  49		4.8265e+000	3.4587		3.0868		-5.5141e-003
  50		4.9250e+000	3.5296		3.1547		-5.1926e-003
  51		5.0235e+000	3.6116		3.2267		-5.2338e-003
  52		5.1220e+000	3.6852		3.2893		-4.9085e-003
  53		5.2205e+000	3.7706		3.3600		-4.9384e-003
  54		5.3190e+000	3.8512		3.4271		-4.7104e-003
  55		5.4175e+000	3.9173		3.4860		-4.6880e-003
  56		5.5160e+000	4.0164		3.5543		-4.6468e-003
  57		5.6145e+000	4.0915		3.6169		-4.5123e-003
  58		5.7130e+000	4.1624		3.6832		-4.3291e-003
  59		5.8115e+000	4.2389		3.7446		-4.2319e-003
  60		5.9100e+000	4.3215		3.8129		-4.0300e-003
  61		6.0085e+000	4.4021		3.8653		-4.0150e-003
  62		6.1070e+000	4.4757		3.9307		-3.7646e-003
  63		6.2055e+000	4.5570		3.9844		-3.7085e-003
  64		6.3040e+000	4.6265		4.0486		-3.5365e-003
  65		6.4025e+000	4.7271		4.1023		-3.4842e-003
  66		6.5010e+000	4.7952		4.1625		-3.1664e-003
  67		6.5995e+000	4.8641		4.2267		-3.1776e-003
  68		6.6980e+000	4.9460		4.2844		-3.0730e-003
  69		6.7965e+000	5.0335		4.3352		-2.8674e-003
  70		6.8950e+000	5.0982		4.3905		-2.7926e-003
  71		6.9935e+000	5.1774		4.4503		-2.7515e-003
  72		7.0920e+000	5.2586		4.5068		-2.4561e-003
  73		7.1905e+000	5.3509		4.5584		-2.2842e-003
  74		7.2890e+000	5.4143		4.6194		-2.1795e-003
  75		7.3875e+000	5.5051		4.6698		-2.0823e-003
  76		7.4860e+000	5.5712		4.7222		-1.9290e-003
  77		7.5845e+000	5.6635		4.7812		-1.7795e-003
  78		7.6830e+000	5.7489		4.8247		-1.5776e-003
  79		7.7815e+000	5.8129		4.8771		-1.4468e-003
  80		7.8800e+000	5.8942		4.9287		-1.3533e-003
  81		7.9785e+000	5.9734		4.9828		-1.2598e-003
  82		8.0770e+000	6.0512		5.0247		-1.1365e-003
  83		8.1755e+000	6.1269		5.0804		-8.4114e-004
  84		8.2740e+000	6.2089		5.1230		-7.6263e-004
  85		8.3725e+000	6.2970		5.1755		-5.3833e-004
  86		8.4710e+000	6.3604		5.2234		-4.0001e-004
  87		8.5695e+000	6.4430		5.2751		-2.1309e-004
  88		8.6680e+000	6.5235		5.3222		-5.9814e-005
  89		8.7665e+000	6.5965		5.3613		4.1122e-005
  90		8.8650e+000	6.6902		5.4133		1.1215e-004
  91		8.9635e+000	6.7597		5.4576		4.6356e-004
  92		9.0620e+000	6.8348		5.5011		6.5422e-004
  93		9.1605e+000	6.9147		5.5474		8.4862e-004
  94		9.2590e+000	6.9932		5.5917		9.3086e-004
  95		9.3575e+000	7.0785		5.6356		1.0729e-003
  96		9.4560e+000	7.1474		5.6800		1.2524e-003
  97		9.5545e+000	7.2479		5.7218		1.2897e-003
  98		9.6530e+000	7.2975		5.7710		1.5739e-003
  99		9.7515e+000	7.3850		5.8035		1.8729e-003
 100		9.8500e+000	7.4634		5.8527		1.9701e-003
 101		9.9485e+000	7.5351		5.8942		2.0860e-003
 102		1.0047e+001	7.6142		5.9308		2.2468e-003
 103		1.0146e+001	7.7051		5.9710		2.4449e-003
 104		1.0244e+001	7.7733		6.0113		2.3627e-003
 105		1.0342e+001	7.8525		6.0527		2.7328e-003
 106		1.0441e+001	7.9248		6.0889		3.0057e-003
 107		1.0540e+001	8.0219		6.1291		3.1029e-003
 108		1.0638e+001	8.0866		6.1686		3.2300e-003
 109		1.0736e+001	8.1803		6.2092		3.5403e-003
 110		1.0835e+001	8.2381		6.2499		3.6150e-003
 111		1.0934e+001	8.3235		6.2889		3.7010e-003
 112		1.1032e+001	8.4020		6.3243		3.9777e-003
 113		1.1131e+001	8.4860		6.3564		4.1721e-003
 114		1.1229e+001	8.5597		6.3950		4.3253e-003
 115		1.1328e+001	8.6382		6.4352		4.4973e-003
 116		1.1426e+001	8.7180		6.4710		4.6207e-003
 117		1.1525e+001	8.8000		6.5096		4.8300e-003
 118		1.1623e+001	8.8544		6.5393		4.9048e-003
 119		1.1722e+001	8.9515		6.5844		5.1141e-003
 120		1.1820e+001	9.0134		6.6125		5.2525e-003
 121		1.1919e+001	9.1119		6.6511		5.5067e-003
 122		1.2017e+001	9.1849		6.6792		5.6226e-003
 123		1.2116e+001	9.2648		6.7096		5.8095e-003
 124		1.2214e+001	9.3371		6.7527		6.0674e-003
 125		1.2313e+001	9.4038		6.7828		6.1497e-003
 126		1.2411e+001	9.4961		6.8178		6.2394e-003
 127		1.2509e+001	9.5650		6.8511		6.5235e-003
 128		1.2608e+001	9.6552		6.8788		6.7030e-003
 129		1.2707e+001	9.7461		6.9133		6.8114e-003
 130		1.2805e+001	9.8060		6.9487		7.0544e-003
 131		1.2903e+001	9.8941		6.9759		7.1553e-003
 132		1.3002e+001	9.9712		7.0113		7.2525e-003
 133		1.3101e+001	10.0518		7.0450		7.5404e-003
 134		1.3199e+001	10.1275		7.0763		7.6600e-003
 135		1.3297e+001	10.2177		7.1035		8.1385e-003
 136		1.3396e+001	10.2956		7.1283		8.0637e-003
 137		1.3495e+001	10.3672		7.1621		8.2320e-003
 138		1.3593e+001	10.4415		7.1934		8.3254e-003
 139		1.3692e+001	10.5069		7.2259		8.2133e-003
 140		1.3790e+001	10.6033		7.2576		8.7180e-003
 141		1.3889e+001	10.6805		7.2824		8.8899e-003
 142		1.3987e+001	10.7500		7.3060		9.0357e-003
 143		1.4086e+001	10.8326		7.3446		9.2301e-003
 144		1.4184e+001	10.9125		7.3670		9.3572e-003
 145		1.4283e+001	10.9986		7.3970		9.5030e-003
 146		1.4381e+001	11.0750		7.4227		9.7049e-003
 147		1.4480e+001	11.1473		7.4507		9.8245e-003
 148		1.4578e+001	11.2210		7.4763		1.0053e-002
 149		1.4677e+001	11.3064		7.5060		1.0243e-002
 150		1.4775e+001	11.3711		7.5312		1.0396e-002
 151		1.4874e+001	11.4654		7.5641		1.0385e-002
 152		1.4972e+001	11.5315		7.5885		1.0632e-002
 153		1.5070e+001	11.6238		7.6141		1.0841e-002
 154		1.5169e+001	11.6899		7.6397		1.1036e-002
 155		1.5268e+001	11.7801		7.6649		1.1249e-002
 156		1.5366e+001	11.8455		7.6914		1.1398e-002
 157		1.5464e+001	11.9454		7.7186		1.1507e-002
 158		1.5563e+001	12.0046		7.7418		1.1630e-002
 159		1.5662e+001	12.0955		7.7698		1.1933e-002
 160		1.5760e+001	12.1685		7.7962		1.1896e-002
 161		1.5858e+001	12.2490		7.8186		1.2101e-002
 162		1.5957e+001	12.3282		7.8385		1.2299e-002
 163		1.6055e+001	12.4053		7.8653		1.2426e-002
 164		1.6154e+001	12.4763		7.8934		1.2643e-002
 165		1.6253e+001	12.5637		7.9206		1.2755e-002
 166		1.6351e+001	12.6298		7.9397		1.2808e-002
 167		1.6450e+001	12.7104		7.9649		1.3111e-002
 168		1.6548e+001	12.7882		7.9946		1.3320e-002
 169		1.6647e+001	12.8674		8.0121		1.3413e-002
 170		1.6745e+001	12.9472		8.0373		1.3447e-002
 171		1.6843e+001	13.0257		8.0601		1.3593e-002
 172		1.6942e+001	13.0967		8.0832		1.3559e-002
 173		1.7041e+001	13.1772		8.1019		1.3896e-002
 174		1.7139e+001	13.2640		8.1308		1.4101e-002
 175		1.7238e+001	13.3342		8.1458		1.4247e-002
 176		1.7336e+001	13.4127		8.1771		1.4490e-002
 177		1.7435e+001	13.5029		8.1934		1.4498e-002
 178		1.7533e+001	13.5814		8.2125		1.4692e-002
 179		1.7631e+001	13.6475		8.2410		1.4812e-002
 180		1.7730e+001	13.7329		8.2593		1.4950e-002
 181		1.7828e+001	13.8093		8.2832		1.5163e-002
 182		1.7927e+001	13.8920		8.3072		1.5346e-002
 183		1.8026e+001	13.9684		8.3259		1.5425e-002
 184		1.8124e+001	14.0462		8.3491		1.5499e-002
 185		1.8223e+001	14.1199		8.3666		1.5668e-002
 186		1.8321e+001	14.1853		8.3877		1.6023e-002
 187		1.8419e+001	14.2893		8.4072		1.6049e-002
 188		1.8518e+001	14.3595		8.4336		1.6157e-002
 189		1.8616e+001	14.4373		8.4511		1.6284e-002
 190		1.8715e+001	14.5096		8.4759		1.6479e-002
 191		1.8814e+001	14.5881		8.4946		1.6643e-002
 192		1.8912e+001	14.6694		8.5150		1.6703e-002
 193		1.9011e+001	14.7789		8.5341		1.6763e-002
 194		1.9109e+001	14.8202		8.5556		1.7002e-002
 195		1.9208e+001	14.9104		8.5694		1.7152e-002
 196		1.9306e+001	14.9889		8.5918		1.7279e-002
 197		1.9404e+001	15.0687		8.6089		1.7428e-002
 198		1.9503e+001	15.1472		8.6271		1.7485e-002
 199		1.9602e+001	15.2223		8.6483		1.7683e-002
 200		1.9700e+001	15.2980		8.6674		1.7866e-002
 201		1.9799e+001	15.3848		8.6877		1.7978e-002
 202		1.9897e+001	15.4619		8.7080		1.8086e-002
 203		1.9996e+001	15.5383		8.7267		1.8273e-002
 204		2.0094e+001	15.6065		8.7430		1.8445e-002
 205		2.0192e+001	15.6947		8.7605		1.8535e-002
 206		2.0291e+001	15.7635		8.7767		1.8651e-002
 207		2.0390e+001	15.8523		8.7995		1.8756e-002
 208		2.0488e+001	15.9274		8.8162		1.8767e-002
 209		2.0587e+001	16.0197		8.8357		1.9040e-002
 210		2.0685e+001	16.0747		8.8572		1.9305e-002
 211		2.0784e+001	16.1532		8.8715		1.9399e-002
 212		2.0882e+001	16.2393		8.8910		1.9518e-002
 213		2.0980e+001	16.3102		8.9052		1.9612e-002
 214		2.1079e+001	16.4066		8.9235		1.9735e-002
 215		2.1177e+001	16.4817		8.9381		1.9828e-002
 216		2.1276e+001	16.5595		8.9589		1.9941e-002
 217		2.1375e+001	16.6421		8.9767		2.0150e-002
 218		2.1473e+001	16.7199		8.9930		2.0303e-002
 219		2.1572e+001	16.7978		9.0113		2.0367e-002
 220		2.1670e+001	16.8707		9.0280		2.0475e-002
 221		2.1769e+001	16.9616		9.0471		2.0572e-002
 222		2.1867e+001	17.0181		9.0617		2.0812e-002
 223		2.1965e+001	17.1104		9.0824		2.0834e-002
 224		2.2064e+001	17.1944		9.0946		2.1085e-002
 225		2.2163e+001	17.2770		9.1137		2.1215e-002
 226		2.2261e+001	17.3445		9.1312		2.1257e-002
 227		2.2360e+001	17.4154		9.1446		2.1470e-002
 228		2.2458e+001	17.5104		9.1589		2.1559e-002
 229		2.2557e+001	17.5944		9.1751		2.1537e-002
 230		2.2655e+001	17.6674		9.1893		2.1724e-002
 231		2.2753e+001	17.7445		9.2129		2.1974e-002
 232		2.2852e+001	17.8120		9.2223		2.2019e-002
 233		2.2951e+001	17.8946		9.2385		2.2113e-002
 234		2.3049e+001	17.9718		9.2544		2.2359e-002
 235		2.3148e+001	18.0599		9.2743		2.1825e-002
 236		2.3246e+001	18.1370		9.2865		2.2445e-002
 237		2.3345e+001	18.2114		9.3081		2.2625e-002
 238		2.3443e+001	18.2823		9.3174		2.2887e-002
 239		2.3541e+001	18.3705		9.3357		2.2868e-002
 240		2.3640e+001	18.4400		9.3471		2.2954e-002
 241		2.3738e+001	18.5323		9.3650		2.3036e-002
 242		2.3837e+001	18.6004		9.3792		2.3189e-002
 243		2.3936e+001	18.6762		9.3889		2.3238e-002
 244		2.4034e+001	18.7533		9.4093		2.3477e-002
 245		2.4133e+001	18.8249		9.4190		2.3571e-002
 246		2.4231e+001	18.9234		9.4385		2.3698e-002
 247		2.4329e+001	18.9977		9.4532		2.3761e-002
 248		2.4428e+001	19.0735		9.4654		2.3791e-002
 249		2.4526e+001	19.1671		9.4804		2.3997e-002
 250		2.4625e+001	19.2270		9.4926		2.4068e-002
 251		2.4724e+001	19.3000		9.5093		2.4258e-002
 252		2.4822e+001	19.3723		9.5276		2.4318e-002
 253		2.4921e+001	19.4598		9.5398		2.4344e-002
 254		2.5019e+001	19.5417		9.5552		2.4629e-002
 255		2.5118e+001	19.6292		9.5646		2.4576e-002
 256		2.5216e+001	19.6533		9.5747		2.4240e-002
 257		2.5314e+001	19.6904		9.5747		2.4864e-002
 258		2.5413e+001	19.6457		9.5792		2.4931e-002
 259		2.5512e+001	19.6312		9.5772		2.5103e-002
 260		2.5610e+001	19.6064		9.5711		2.5193e-002
 261		2.5709e+001	19.5617		9.5621		2.5309e-002
 262		2.5807e+001	19.5149		9.5629		2.5141e-002
 263		2.5906e+001	19.4639		9.5475		2.5081e-002
 264		2.6004e+001	19.4157		9.5430		2.5324e-002
 265		2.6102e+001	19.3592		9.5345		2.5511e-002
 266		2.6201e+001	19.2835		9.5243		2.5485e-002
 267		2.6299e+001	19.2263		9.5182		2.5316e-002
 268		2.6398e+001	19.1554		9.5064		2.5343e-002
 269		2.6497e+001	19.0879		9.4955		2.5537e-002
 270		2.6595e+001	19.0046		9.4780		2.5586e-002
 271		2.6694e+001	18.9371		9.4686		2.5429e-002
 272		2.6792e+001	18.8717		9.4609		2.5440e-002
 273		2.6890e+001	18.8056		9.4499		2.5429e-002
 274		2.6989e+001	18.7271		9.4333		2.5470e-002
 275		2.7087e+001	18.6266		9.4255		2.5399e-002
 276		2.7186e+001	18.5715		9.4105		2.5545e-002
 277		2.7285e+001	18.4985		9.3983		2.5316e-002
 278		2.7383e+001	18.4090		9.3828		2.5346e-002
 279		2.7482e+001	18.3374		9.3731		2.5253e-002
 280		2.7580e+001	18.2644		9.3633		2.5238e-002
 281		2.7679e+001	18.1777		9.3446		2.5204e-002
 282		2.7777e+001	18.1005		9.3300		2.5055e-002
 283		2.7875e+001	18.0317		9.3215		2.4797e-002
 284		2.7974e+001	17.9484		9.3036		2.4916e-002
 285		2.8073e+001	17.8761		9.2877		2.4950e-002
 286		2.8171e+001	17.7934		9.2739		2.4902e-002
 287		2.8270e+001	17.7025		9.2629		2.4748e-002
 288		2.8368e+001	17.6344		9.2471		2.4816e-002
 289		2.8467e+001	17.5566		9.2357		2.4573e-002
 290		2.8565e+001	17.4746		9.2162		2.4535e-002
 291		2.8663e+001	17.4099		9.2085		2.4472e-002
 292		2.8762e+001	17.3114		9.1906		2.4247e-002
 293		2.8860e+001	17.2543		9.1735		2.4344e-002
 294		2.8959e+001	17.1765		9.1633		2.4206e-002
 295		2.9058e+001	17.0801		9.1450		2.4004e-002
 296		2.9156e+001	16.9981		9.1337		2.4109e-002
 297		2.9255e+001	16.9334		9.1141		2.4232e-002
 298		2.9353e+001	16.8446		9.1011		2.3731e-002
 299		2.9451e+001	16.7750		9.0914		2.3739e-002
 300		2.9550e+001	16.6883		9.0690		2.3630e-002
 301		2.9648e+001	16.6139		9.0572		2.3537e-002
 302		2.9747e+001	16.5333		9.0369		2.3488e-002
 303		2.9846e+001	16.4542		9.0251		2.3279e-002
 304		2.9944e+001	16.3825		9.0093		2.2950e-002
 305		3.0043e+001	16.3137		8.9902		2.3088e-002
 306		3.0141e+001	16.2042		8.9776		2.3002e-002
 307		3.0240e+001	16.1326		8.9609		2.2924e-002
 308		3.0338e+001	16.0582		8.9454		2.2786e-002
 309		3.0436e+001	15.9770		8.9304		2.2786e-002
 310		3.0535e+001	15.8971		8.9166		2.2531e-002
 311		3.0634e+001	15.8131		8.8979		2.2550e-002
 312		3.0732e+001	15.7318		8.8849		2.2315e-002
 313		3.0831e+001	15.6650		8.8625		2.2243e-002
 314		3.0929e+001	15.5776		8.8471		2.2128e-002
 315		3.1028e+001	15.5115		8.8324		2.2049e-002
 316		3.1126e+001	15.4199		8.8178		2.1915e-002
 317		3.1224e+001	15.3511		8.7958		2.1758e-002
 318		3.1323e+001	15.2657		8.7861		2.1492e-002
 319		3.1422e+001	15.1858		8.7617		2.1630e-002
 320		3.1520e+001	15.1204		8.7450		2.1410e-002
 321		3.1619e+001	15.0453		8.7292		2.1328e-002
 322		3.1717e+001	14.9441		8.7141		2.1219e-002
 323		3.1816e+001	14.8801		8.6983		2.1043e-002
 324		3.1914e+001	14.8016		8.6767		2.0909e-002
 325		3.2013e+001	14.7210		8.6580		2.0595e-002
 326		3.2111e+001	14.6425		8.6393		2.0658e-002
 327		3.2209e+001	14.5640		8.6267		2.0557e-002
 328		3.2308e+001	14.4841		8.6097		2.0457e-002
 329		3.2407e+001	14.4063		8.5877		2.0341e-002
 330		3.2505e+001	14.3161		8.5682		2.0199e-002
 331		3.2603e+001	14.2638		8.5511		2.0060e-002
 332		3.2702e+001	14.1729		8.5341		2.0030e-002
 333		3.2801e+001	14.0903		8.5150		1.9821e-002
 334		3.2899e+001	14.0056		8.4926		1.9664e-002
 335		3.2998e+001	13.9298		8.4763		1.9559e-002
 336		3.3096e+001	13.8548		8.4568		1.9440e-002
 337		3.3194e+001	13.7908		8.4389		1.9294e-002
 338		3.3293e+001	13.6992		8.4219		1.9144e-002
 339		3.3392e+001	13.6159		8.3950		1.8774e-002
 340		3.3490e+001	13.5491		8.3796		1.8946e-002
 341		3.3589e+001	13.4740		8.3584		1.8819e-002
 342		3.3687e+001	13.3762		8.3418		1.8744e-002
 343		3.3785e+001	13.3019		8.3210		1.8550e-002
 344		3.3884e+001	13.2303		8.2995		1.8434e-002
 345		3.3983e+001	13.1497		8.2849		1.8303e-002
 346		3.4081e+001	13.0760		8.2588		1.8262e-002
 347		3.4179e+001	13.0044		8.2406		1.8034e-002
 348		3.4278e+001	12.9101		8.2178		1.7967e-002
 349		3.4377e+001	12.8467		8.2019		1.7892e-002
 350		3.4475e+001	12.7524		8.1739		1.7664e-002
 351		3.4574e+001	12.6821		8.1560		1.7522e-002
 352		3.4672e+001	12.5981		8.1345		1.7227e-002
 353		3.4770e+001	12.5451		8.1133		1.7189e-002
 354		3.4869e+001	12.4453		8.0869		1.7234e-002
 355		3.4968e+001	12.3744		8.0666		1.7028e-002
 356		3.5066e+001	12.2862		8.0454		1.6879e-002
 357		3.5164e+001	12.2236		8.0231		1.6684e-002
 358		3.5263e+001	12.1237		8.0048		1.6591e-002
 359		3.5361e+001	12.0583		7.9759		1.6520e-002
 360		3.5460e+001	11.9743		7.9568		1.6404e-002
 361		3.5559e+001	11.9068		7.9336		1.6322e-002
 362		3.5657e+001	11.8118		7.9064		1.6124e-002
 363		3.5755e+001	11.7484		7.8873		1.5944e-002
 364		3.5854e+001	11.6644		7.8698		1.5671e-002
 365		3.5953e+001	11.5914		7.8442		1.5597e-002
 366		3.6051e+001	11.5178		7.8182		1.5477e-002
 367		3.6150e+001	11.4207		7.7991		1.5398e-002
 368		3.6248e+001	11.3436		7.7727		1.5279e-002
 369		3.6346e+001	11.2960		7.7471		1.5163e-002
 370		3.6445e+001	11.1990		7.7182		1.5028e-002
 371		3.6544e+001	11.1067		7.6987		1.4868e-002
 372		3.6642e+001	11.0234		7.6788		1.4703e-002
 373		3.6740e+001	10.9690		7.6507		1.4595e-002
 374		3.6839e+001	10.8795		7.6251		1.4344e-002
 375		3.6938e+001	10.7975		7.6044		1.4329e-002
 376		3.7036e+001	10.7183		7.5735		1.4127e-002
 377		3.7135e+001	10.6447		7.5450		1.4038e-002
 378		3.7233e+001	10.5689		7.5210		1.3884e-002
 379		3.7331e+001	10.4746		7.4962		1.3683e-002
 380		3.7430e+001	10.4043		7.4718		1.3626e-002
 381		3.7529e+001	10.3286		7.4430		1.3443e-002
 382		3.7627e+001	10.2549		7.4162		1.3324e-002
 383		3.7725e+001	10.1682		7.3889		1.3200e-002
 384		3.7824e+001	10.0787		7.3617		1.3096e-002
 385		3.7922e+001	10.0222		7.3349		1.2905e-002
 386		3.8021e+001	9.9292		7.3109		1.2785e-002
 387		3.8120e+001	9.8487		7.2804		1.2591e-002
 388		3.8218e+001	9.7860		7.2540		1.2483e-002
 389		3.8316e+001	9.7054		7.2267		1.2367e-002
 390		3.8415e+001	9.6125		7.1946		1.2210e-002
 391		3.8514e+001	9.5498		7.1657		1.2086e-002
 392		3.8612e+001	9.4576		7.1373		1.1843e-002
 393		3.8711e+001	9.3791		7.1076		1.1765e-002
 394		3.8809e+001	9.2951		7.0792		1.1597e-002
 395		3.8907e+001	9.2324		7.0479		1.1372e-002
 396		3.9006e+001	9.1505		7.0125		1.1223e-002
 397		3.9105e+001	9.0726		6.9832		1.1133e-002
 398		3.9203e+001	8.9976		6.9548		1.1006e-002
 399		3.9301e+001	8.9095		6.9255		1.0864e-002
 400		3.9400e+001	8.8330		6.8865		1.0767e-002
 401		3.9499e+001	8.7600		6.8617		1.0490e-002
 402		3.9597e+001	8.6884		6.8308		1.0370e-002
 403		3.9696e+001	8.5982		6.8052		1.0228e-002
 404		3.9794e+001	8.5225		6.7633		1.0079e-002
 405		3.9892e+001	8.4502		6.7348		9.8245e-003
 406		3.9991e+001	8.3634		6.6991		9.6563e-003
 407		4.0090e+001	8.2966		6.6661		9.2413e-003
 408		4.0188e+001	8.1982		6.6328		9.4096e-003
 409		4.0286e+001	8.1376		6.5995		9.3497e-003
 410		4.0385e+001	8.0542		6.5690		9.1516e-003
 411		4.0483e+001	7.9737		6.5300		8.8824e-003
 412		4.0582e+001	7.8993		6.4987		8.9535e-003
 413		4.0681e+001	7.8208		6.4625		8.6469e-003
 414		4.0779e+001	7.7637		6.4275		8.4338e-003
 415		4.0877e+001	7.6624		6.3942		8.3927e-003
 416		4.0976e+001	7.5778		6.3605		8.1385e-003
 417		4.1075e+001	7.5137		6.3247		8.0600e-003
 418		4.1173e+001	7.4263		6.2840		7.9665e-003
 419		4.1272e+001	7.3409		6.2487		7.6675e-003
 420		4.1370e+001	7.2706		6.2080		7.4992e-003
 421		4.1468e+001	7.1887		6.1722		7.6562e-003
 422		4.1567e+001	7.1075		6.1365		7.2974e-003
 423		4.1666e+001	7.0255		6.0934		7.0992e-003
 424		4.1764e+001	6.9443		6.0576		6.9609e-003
 425		4.1862e+001	6.8823		6.0186		6.8076e-003
 426		4.1961e+001	6.7942		5.9800		6.6693e-003
 427		4.2060e+001	6.7143		5.9413		6.4487e-003
 428		4.2158e+001	6.6427		5.9011		5.8319e-003
 429		4.2257e+001	6.5614		5.8600		6.1609e-003
 430		4.2355e+001	6.4939		5.8161		5.9590e-003
 431		4.2453e+001	6.4072		5.7787		5.8170e-003
 432		4.2552e+001	6.3211		5.7373		5.6674e-003
 433		4.2651e+001	6.2571		5.6954		5.6450e-003
 434		4.2749e+001	6.1676		5.6531		5.2936e-003
 435		4.2847e+001	6.0801		5.6076		5.4805e-003
 436		4.2946e+001	6.0078		5.5641		5.0207e-003
 437		4.3044e+001	5.9217		5.5210		4.9123e-003
 438		4.3143e+001	5.8522		5.4751		4.7104e-003
 439		4.3242e+001	5.7730		5.4308		4.4599e-003
 440		4.3340e+001	5.6828		5.3856		4.2468e-003
 441		4.3438e+001	5.6153		5.3344		4.1908e-003
 442		4.3537e+001	5.5286		5.2909		3.9889e-003
 443		4.3636e+001	5.4576		5.2474		3.8618e-003
 444		4.3734e+001	5.3688		5.2047		3.6001e-003
 445		4.3833e+001	5.2889		5.1560		3.5029e-003
 446		4.3931e+001	5.2173		5.1125		3.2823e-003
 447		4.4029e+001	5.1354		5.0621		3.1066e-003
 448		4.4128e+001	5.0466		5.0129		3.0692e-003
 449		4.4227e+001	4.9990		4.9600		2.8075e-003
 450		4.4325e+001	4.8964		4.9157		2.6580e-003
 451		4.4423e+001	4.8090		4.8665		2.4374e-003
 452		4.4522e+001	4.7422		4.8173		2.2617e-003
 453		4.4621e+001	4.6596		4.7616		2.1272e-003
 454		4.4719e+001	4.5790		4.7112		1.7608e-003
 455		4.4818e+001	4.5033		4.6588		1.6898e-003
 456		4.4916e+001	4.4275		4.6100		1.6636e-003
 457		4.5014e+001	4.3525		4.5555		1.4767e-003
 458		4.5113e+001	4.2726		4.5043		1.2711e-003
 459		4.5212e+001	4.1975		4.4527		1.0841e-003
 460		4.5310e+001	4.1142		4.3938		9.7572e-004
 461		4.5408e+001	4.0330		4.3389		7.1030e-004
 462		4.5507e+001	3.9559		4.2893		3.6263e-004
 463		4.5605e+001	3.8774		4.2316		5.8319e-004
 464		4.5704e+001	3.7968		4.1771		3.0655e-004
 465		4.5803e+001	3.7272		4.1214		2.2430e-004
 466		4.5901e+001	3.6302		4.0645		-4.1122e-005
 467		4.5999e+001	3.5551		4.0047		-1.8318e-004
 468		4.6098e+001	3.4794		3.9539		-3.6263e-004
 469		4.6197e+001	3.4016		3.8889		-2.9533e-004
 470		4.6295e+001	3.3272		3.8291		-5.6824e-004
 471		4.6394e+001	3.2487		3.7657		-9.1217e-004
 472		4.6492e+001	3.1716		3.7092		-1.0729e-003
 473		4.6590e+001	3.0910		3.6519		-1.2486e-003
 474		4.6689e+001	3.0215		3.5872		-1.4804e-003
 475		4.6788e+001	2.9340		3.5283		-1.6561e-003
 476		4.6886e+001	2.8466		3.4653		-1.6449e-003
 477		4.6984e+001	2.7860		3.4035		-1.8131e-003
 478		4.7083e+001	2.6909		3.3368		-1.9926e-003
 479		4.7182e+001	2.6214		3.2669		-2.1234e-003
 480		4.7280e+001	2.5477		3.2112		-2.3141e-003
 481		4.7379e+001	2.4740		3.1437		-2.4412e-003
 482		4.7477e+001	2.4004		3.0771		-2.8898e-003
 483		4.7575e+001	2.3019		3.0096		-2.8524e-003
 484		4.7674e+001	2.2200		2.9441		-2.8748e-003
 485		4.7773e+001	2.1511		2.8750		-3.0543e-003
 486		4.7871e+001	2.0685		2.8055		-3.1814e-003
 487		4.7969e+001	1.9852		2.7372		-3.2935e-003
 488		4.8068e+001	1.9142		2.6669		-3.5552e-003
 489		4.8166e+001	1.8247		2.5945		-3.7571e-003
 490		4.8265e+001	1.7524		2.5283		-3.8655e-003
 491		4.8364e+001	1.6877		2.4474		-3.9365e-003
 492		4.8462e+001	1.5968		2.3828		-4.0375e-003
 493		4.8560e+001	1.5169		2.3055		-4.1982e-003
 494		4.8659e+001	1.4371		2.2328		-4.2580e-003
 495		4.8758e+001	1.3572		2.1543		-4.5160e-003
 496		4.8856e+001	1.2904		2.0799		-4.8188e-003
 497		4.8955e+001	1.2105		2.0055		-4.7291e-003
 498		4.9053e+001	1.1286		1.9287		-4.8861e-003
 499		4.9151e+001	1.0446		1.8510		-4.9235e-003
 500		4.9250e+001	0.9668		1.7771		-5.0730e-003
 501		4.9349e+001	0.8896		1.6933		-5.1777e-003
 502		4.9447e+001	0.8070		1.6120		-5.3123e-003
 503		4.9545e+001	0.7285		1.5319		-5.4207e-003
 504		4.9644e+001	0.6404		1.4498		-5.5777e-003
 505		4.9743e+001	0.5756		1.3620		-5.7272e-003
 506		4.9841e+001	0.5040		1.2844		-5.7384e-003
 507		4.9940e+001	0.4283		1.1949		-5.9179e-003
 508		5.0038e+001	0.3512		1.1124		-5.9328e-003
 509		5.0136e+001	0.2658		1.0246		-6.2431e-003
 510		5.0235e+001	0.1928		0.9392		-6.1459e-003
 511		5.0334e+001	0.0943		0.8539		-5.9029e-003
 512		5.0432e+001	0.0255		0.7555		-6.3067e-003
 513		5.0531e+001	-0.0365		0.6673		-6.5198e-003
 514		5.0629e+001	-0.1212		0.5787		-6.4450e-003
 515		5.0727e+001	-0.2155		0.4827		-6.5833e-003
 516		5.0826e+001	-0.2885		0.3917		-6.6730e-003
 517		5.0925e+001	-0.3581		0.2953		-6.8188e-003
 518		5.1023e+001	-0.4455		0.2071		-7.3048e-003
 519		5.1121e+001	-0.5302		0.1108		-6.8899e-003
 520		5.1220e+001	-0.5956		0.0169		-6.8338e-003
 521		5.1319e+001	-0.6700		-0.0827		-6.9759e-003
 522		5.1417e+001	-0.7616		-0.1819		-7.0618e-003
 523		5.1516e+001	-0.8242		-0.2742		-7.0095e-003
 524		5.1614e+001	-0.9206		-0.3713		-7.0955e-003
 525		5.1712e+001	-0.9853		-0.4701		-7.2039e-003
 526		5.1811e+001	-1.0742		-0.5640		-7.1179e-003
 527		5.1910e+001	-1.1534		-0.6636		-7.1852e-003
 528		5.2008e+001	-1.2298		-0.7592		-7.1030e-003
 529		5.2106e+001	-1.2952		-0.8543		-7.2263e-003
 530		5.2205e+001	-1.3868		-0.9470		-7.1553e-003
 531		5.2304e+001	-1.4612		-1.0437		-7.2114e-003
 532		5.2402e+001	-1.5286		-1.1457		-7.2301e-003
 533		5.2501e+001	-1.6175		-1.2327		-7.2039e-003
 534		5.2599e+001	-1.7022		-1.3222		-7.0768e-003
 535		5.2697e+001	-1.7827		-1.4136		-7.1665e-003
 536		5.2796e+001	-1.8605		-1.5010		-7.0880e-003
 537		5.2895e+001	-1.9163		-1.5913		-7.0432e-003
 538		5.2993e+001	-2.0148		-1.6811		-7.0357e-003
 539		5.3092e+001	-2.0946		-1.7657		-6.9833e-003
 540		5.3190e+001	-2.1683		-1.8555		-6.8974e-003
 541		5.3288e+001	-2.2441		-1.9344		-6.9235e-003
 542		5.3387e+001	-2.3226		-2.0153		-6.8525e-003
 543		5.3486e+001	-2.3942		-2.0978		-6.7927e-003
 544		5.3584e+001	-2.4782		-2.1787		-6.7104e-003
 545		5.3682e+001	-2.5594		-2.2608		-6.5160e-003
 546		5.3781e+001	-2.6317		-2.3372		-6.7104e-003
 547		5.3880e+001	-2.7281		-2.4145		-6.5123e-003
 548		5.3978e+001	-2.7922		-2.4909		-6.4338e-003
 549		5.4077e+001	-2.8693		-2.5641		-6.3441e-003
 550		5.4175e+001	-2.9505		-2.6413		-6.3366e-003
 551		5.4273e+001	-3.0215		-2.7157		-6.1609e-003
 552		5.4372e+001	-3.0965		-2.7860		-6.0600e-003
 553		5.4471e+001	-3.1860		-2.8592		-6.0973e-003
 554		5.4569e+001	-3.2755		-2.9311		-6.0114e-003
 555		5.4667e+001	-3.3403		-3.0027		-5.8207e-003
 556		5.4766e+001	-3.4215		-3.0722		-5.7272e-003
 557		5.4865e+001	-3.4924		-3.1397		-5.5104e-003
 558		5.4963e+001	-3.5682		-3.2084		-5.4207e-003
 559		5.5062e+001	-3.6501		-3.2710		-5.4469e-003
 560		5.5160e+001	-3.7458		-3.3376		-5.2263e-003
 561		5.5258e+001	-3.8099		-3.4112		-5.1141e-003
 562		5.5357e+001	-3.8953		-3.4726		-4.9945e-003
 563		5.5456e+001	-3.9586		-3.5364		-4.8263e-003
 564		5.5554e+001	-4.0550		-3.6051		-4.6618e-003
 565		5.5653e+001	-4.1246		-3.6629		-4.5945e-003
 566		5.5751e+001	-4.2161		-3.7222		-4.1459e-003
 567		5.5849e+001	-4.2843		-3.7909		-4.4038e-003
 568		5.5948e+001	-4.3635		-3.8454		-4.1908e-003
 569		5.6047e+001	-4.4420		-3.9051		-3.8543e-003
 570		5.6145e+001	-4.5184		-3.9714		-3.8244e-003
 571		5.6243e+001	-4.5859		-4.0271		-3.7870e-003
 572		5.6342e+001	-4.6782		-4.0860		-3.5814e-003
 573		5.6441e+001	-4.7525		-4.1446		-3.4879e-003
 574		5.6539e+001	-4.8352		-4.1978		-3.2674e-003
 575		5.6638e+001	-4.9088		-4.2588		-3.2487e-003
 576		5.6736e+001	-4.9825		-4.3169		-3.0917e-003
 577		5.6834e+001	-5.0583		-4.3795		-2.8711e-003
 578		5.6933e+001	-5.1485		-4.4283		-2.7066e-003
 579		5.7032e+001	-5.2277		-4.4868		-2.5982e-003
 580		5.7130e+001	-5.3020		-4.5340		-2.4636e-003
 581		5.7228e+001	-5.3874		-4.5958		-2.1496e-003
 582		5.7327e+001	-5.4666		-4.6482		-2.1645e-003
 583		5.7426e+001	-5.5465		-4.7027		-1.9402e-003
 584		5.7524e+001	-5.6312		-4.7539		-1.7683e-003
 585		5.7623e+001	-5.6973		-4.8060		-1.7122e-003
 586		5.7721e+001	-5.7778		-4.8572		-1.5664e-003
 587		5.7819e+001	-5.8474		-4.9080		-1.3458e-003
 588		5.7918e+001	-5.9300		-4.9617		-1.0879e-003
 589		5.8017e+001	-6.0181		-5.0068		-9.5329e-004
 590		5.8115e+001	-6.0973		-5.0539		-8.2245e-004
 591		5.8214e+001	-6.1703		-5.1100		-6.2431e-004
 592		5.8312e+001	-6.2626		-5.1572		-4.6356e-004
 593		5.8410e+001	-6.3184		-5.2104		-3.1776e-004
 594		5.8509e+001	-6.4182		-5.2539		-2.0935e-004
 595		5.8608e+001	-6.4932		-5.3052		4.8599e-005
 596		5.8706e+001	-6.5676		-5.3462		2.1683e-004
 597		5.8804e+001	-6.6337		-5.3934		3.5889e-004
 598		5.8903e+001	-6.7198		-5.4413		5.8319e-004
 599		5.9002e+001	-6.8127		-5.4800		6.6170e-004
 600		5.9100e+001	-6.8830		-5.5263		9.1591e-004
 601		5.9199e+001	-6.9587		-5.5743		1.0355e-003
 602		5.9297e+001	-7.0462		-5.6145		1.2673e-003
 603		5.9395e+001	-7.1192		-5.6617		1.4841e-003
 604		5.9494e+001	-7.1990		-5.7007		1.5813e-003
 605		5.9593e+001	-7.2679		-5.7474		1.6972e-003
 606		5.9691e+001	-7.3664		-5.7885		1.9028e-003
 607		5.9789e+001	-7.4297		-5.8291		2.0823e-003
 608		5.9888e+001	-7.5144		-5.8735		2.2954e-003
 609		5.9986e+001	-7.5674		-5.9129		2.4038e-003
 610		6.0085e+001	-7.6769		-5.9584		2.6318e-003
 611		6.0184e+001	-7.7478		-5.9983		2.7141e-003
 612		6.0282e+001	-7.8353		-6.0377		2.9945e-003
 613		6.0380e+001	-7.8938		-6.0767		3.1216e-003
 614		6.0479e+001	-7.9819		-6.1080		3.3907e-003
 615		6.0578e+001	-8.0439		-6.1519		3.5365e-003
 616		6.0676e+001	-8.1431		-6.1889		3.6711e-003
 617		6.0775e+001	-8.2112		-6.2296		3.9029e-003
 618		6.0873e+001	-8.2829		-6.2686		3.8543e-003
 619		6.0971e+001	-8.3634		-6.3088		4.1010e-003
 620		6.1070e+001	-8.4605		-6.3377		4.4786e-003
 621		6.1169e+001	-8.5252		-6.3800		4.5571e-003
 622		6.1267e+001	-8.6127		-6.4198		4.7627e-003
 623		6.1365e+001	-8.6774		-6.4507		5.0169e-003
 624		6.1464e+001	-8.7655		-6.4901		5.0319e-003
 625		6.1563e+001	-8.8557		-6.5271		4.9908e-003
 626		6.1661e+001	-8.9239		-6.5584		5.3908e-003
 627		6.1760e+001	-9.0045		-6.5946		5.6226e-003
 628		6.1858e+001	-9.0733		-6.6275		5.8170e-003
 629		6.1956e+001	-9.1505		-6.6633		5.8768e-003
 630		6.2055e+001	-9.2400		-6.6983		6.1011e-003
 631		6.2154e+001	-9.3164		-6.7320		6.1721e-003
 632		6.2252e+001	-9.3949		-6.7690		6.3553e-003
 633		6.2350e+001	-9.4582		-6.7946		6.5908e-003
 634		6.2449e+001	-9.5519		-6.8300		6.7852e-003
 635		6.2547e+001	-9.6325		-6.8682		6.9460e-003
 636		6.2646e+001	-9.7048		-6.9027		7.1852e-003
 637		6.2745e+001	-9.7702		-6.9304		7.2936e-003
 638		6.2843e+001	-9.8693		-6.9637		7.4133e-003
 639		6.2941e+001	-9.9389		-6.9934		7.5890e-003
 640		6.3040e+001	-10.0305		-7.0243		7.7684e-003
 641		6.3139e+001	-10.0807		-7.0523		7.9366e-003
 642		6.3237e+001	-10.1930		-7.0792		8.0787e-003
 643		6.3336e+001	-10.2604		-7.1178		8.2656e-003
 644		6.3434e+001	-10.3327		-7.1466		8.3292e-003
 645		6.3532e+001	-10.4126		-7.1747		8.5123e-003
 646		6.3631e+001	-10.5007		-7.2048		8.6918e-003
 647		6.3730e+001	-10.5655		-7.2353		8.8937e-003
 648		6.3828e+001	-10.6447		-7.2662		9.1180e-003
 649		6.3926e+001	-10.7238		-7.2966		9.2525e-003
 650		6.4025e+001	-10.8044		-7.3259		9.4769e-003
 651		6.4124e+001	-10.8815		-7.3564		9.6040e-003
 652		6.4222e+001	-10.9600		-7.3759		9.6899e-003
 653		6.4320e+001	-11.0296		-7.4101		9.9554e-003
 654		6.4419e+001	-11.1267		-7.4332		1.0038e-002
 655		6.4517e+001	-11.1893		-7.4666		1.0228e-002
 656		6.4616e+001	-11.2740		-7.4926		1.0348e-002
 657		6.4715e+001	-11.3449		-7.5186		1.0411e-002
 658		6.4813e+001	-11.4248		-7.5422		1.0755e-002
 659		6.4912e+001	-11.5116		-7.5751		1.0811e-002
 660		6.5010e+001	-11.5818		-7.5938		1.0954e-002
 661		6.5109e+001	-11.6851		-7.6218		1.1092e-002
 662		6.5207e+001	-11.7450		-7.6495		1.1215e-002
 663		6.5305e+001	-11.8187		-7.6784		1.1525e-002
 664		6.5404e+001	-11.9034		-7.7048		1.1585e-002
 665		6.5502e+001	-11.9764		-7.7271		1.1645e-002
 666		6.5601e+001	-12.0617		-7.7479		1.1937e-002
 667		6.5700e+001	-12.1334		-7.7731		1.2064e-002
 668		6.5798e+001	-12.2112		-7.8040		1.2191e-002
 669		6.5897e+001	-12.2773		-7.8271		1.2284e-002
 670		6.5995e+001	-12.3771		-7.8544		1.2486e-002
 671		6.6094e+001	-12.4556		-7.8808		1.2591e-002
 672		6.6192e+001	-12.5362		-7.9056		1.2748e-002
 673		6.6290e+001	-12.5975		-7.9223		1.2972e-002
 674		6.6389e+001	-12.6952		-7.9491		1.3077e-002
 675		6.6487e+001	-12.7634		-7.9751		1.3028e-002
 676		6.6586e+001	-12.8398		-7.9922		1.3477e-002
 677		6.6685e+001	-12.9073		-8.0182		1.3567e-002
 678		6.6783e+001	-12.9989		-8.0462		1.3698e-002
 679		6.6882e+001	-13.0829		-8.0641		1.3855e-002
 680		6.6980e+001	-13.1628		-8.0889		1.3959e-002
 681		6.7079e+001	-13.2296		-8.1141		1.4217e-002
 682		6.7177e+001	-13.3246		-8.1377		1.4184e-002
 683		6.7275e+001	-13.3845		-8.1576		1.4337e-002
 684		6.7374e+001	-13.4713		-8.1820		1.4584e-002
 685		6.7472e+001	-13.5429		-8.2032		1.4711e-002
 686		6.7571e+001	-13.6248		-8.2255		1.4696e-002
 687		6.7669e+001	-13.6964		-8.2475		1.4935e-002
 688		6.7768e+001	-13.7866		-8.2658		1.5141e-002
 689		6.7867e+001	-13.8486		-8.2906		1.5219e-002
 690		6.7965e+001	-13.9326		-8.3121		1.5350e-002
 691		6.8064e+001	-14.0159		-8.3353		1.5514e-002
 692		6.8162e+001	-14.0923		-8.3503		1.5686e-002
 693		6.8260e+001	-14.1777		-8.3751		1.5705e-002
 694		6.8359e+001	-14.2514		-8.3946		1.5896e-002
 695		6.8457e+001	-14.3464		-8.4194		1.6015e-002
 696		6.8556e+001	-14.4077		-8.4349		1.6139e-002
 697		6.8654e+001	-14.4883		-8.4576		1.6314e-002
 698		6.8753e+001	-14.5620		-8.4767		1.6565e-002
 699		6.8852e+001	-14.6584		-8.5011		1.6651e-002
 700		6.8950e+001	-14.7148		-8.5154		1.6737e-002
 701		6.9049e+001	-14.8016		-8.5328		1.6864e-002
 702		6.9147e+001	-14.8787		-8.5589		1.6920e-002
 703		6.9246e+001	-14.9779		-8.5755		1.7271e-002
 704		6.9344e+001	-15.0322		-8.5922		1.7275e-002
 705		6.9442e+001	-15.1025		-8.6174		1.7410e-002
 706		6.9541e+001	-15.1858		-8.6385		1.7570e-002
 707		6.9639e+001	-15.2753		-8.6536		1.7720e-002
 708		6.9738e+001	-15.3538		-8.6800		1.7612e-002
 709		6.9837e+001	-15.4406		-8.6881		1.7971e-002
 710		6.9935e+001	-15.5301		-8.7117		1.8479e-002
 711		7.0034e+001	-15.5797		-8.7243		1.8232e-002
 712		7.0132e+001	-15.6678		-8.7487		1.8281e-002
 713		7.0231e+001	-15.7367		-8.7650		1.8486e-002
 714		7.0329e+001	-15.8227		-8.7788		1.8528e-002
 715		7.0427e+001	-15.8971		-8.8044		1.8595e-002
 716		7.0526e+001	-15.9832		-8.8194		1.8879e-002
 717		7.0624e+001	-16.0279		-8.8369		1.9017e-002
 718		7.0723e+001	-16.1347		-8.8613		1.9081e-002
 719		7.0822e+001	-16.2076		-8.8751		1.9208e-002
 720		7.0920e+001	-16.3075		-8.8938		1.9365e-002
 721		7.1019e+001	-16.3543		-8.9133		1.9477e-002
 722		7.1117e+001	-16.4528		-8.9239		1.9623e-002
 723		7.1216e+001	-16.5189		-8.9426		1.9668e-002
 724		7.1314e+001	-16.6056		-8.9593		1.9776e-002
 725		7.1412e+001	-16.6883		-8.9804		1.9959e-002
 726		7.1511e+001	-16.7695		-8.9987		2.0042e-002
 727		7.1609e+001	-16.8425		-9.0154		2.0225e-002
 728		7.1708e+001	-16.9300		-9.0324		2.0337e-002
 729		7.1807e+001	-16.9974		-9.0548		2.0404e-002
 730		7.1905e+001	-17.0773		-9.0650		2.0543e-002
 731		7.2004e+001	-17.1696		-9.0833		2.0670e-002
 732		7.2102e+001	-17.2481		-9.0963		2.0819e-002
 733		7.2201e+001	-17.3114		-9.1146		2.0864e-002
 734		7.2299e+001	-17.3885		-9.1312		2.1077e-002
 735		7.2397e+001	-17.4739		-9.1495		2.1148e-002
 736		7.2496e+001	-17.5545		-9.1609		2.1275e-002
 737		7.2594e+001	-17.6234		-9.1788		2.1391e-002
 738		7.2693e+001	-17.7170		-9.1946		2.1492e-002
 739		7.2791e+001	-17.8072		-9.2085		2.1623e-002
 740		7.2890e+001	-17.8671		-9.2267		2.1750e-002
 741		7.2989e+001	-17.9463		-9.2434		2.1903e-002
 742		7.3087e+001	-18.0344		-9.2589		2.2012e-002
 743		7.3186e+001	-18.1026		-9.2731		2.2113e-002
 744		7.3284e+001	-18.1852		-9.2894		2.2247e-002
 745		7.3382e+001	-18.2534		-9.3028		2.2187e-002
 746		7.3481e+001	-18.3470		-9.3219		2.2479e-002
 747		7.3579e+001	-18.4187		-9.3369		2.2516e-002
 748		7.3678e+001	-18.4978		-9.3483		2.2677e-002
 749		7.3776e+001	-18.5653		-9.3690		2.2797e-002
 750		7.3875e+001	-18.6507		-9.3816		2.2901e-002
 751		7.3974e+001	-18.7271		-9.3983		2.2943e-002
 752		7.4072e+001	-18.7960		-9.4133		2.3130e-002
 753		7.4171e+001	-18.8717		-9.4239		2.3189e-002
 754		7.4269e+001	-18.9633		-9.4365		2.3365e-002
 755		7.4368e+001	-19.0446		-9.4576		2.3526e-002
 756		7.4466e+001	-19.1141		-9.4690		2.3601e-002
 757		7.4564e+001	-19.2009		-9.4828		2.3735e-002
 758		7.4663e+001	-19.2787		-9.4950		2.3806e-002
 759		7.4761e+001	-19.3586		-9.5121		2.4004e-002
 760		7.4860e+001	-19.4412		-9.5288		2.4019e-002
 761		7.4959e+001	-19.5100		-9.5422		2.4229e-002
 762		7.5057e+001	-19.5782		-9.5572		2.4281e-002
 763		7.5156e+001	-19.6760		-9.5702		2.4344e-002
 764		7.5254e+001	-19.6911		-9.5747		2.4412e-002
 765		7.5353e+001	-19.7056		-9.5776		2.4524e-002
 766		7.5451e+001	-19.7028		-9.5792		2.4367e-002
 767		7.5549e+001	-19.6787		-9.5723		2.4741e-002
 768		7.5648e+001	-19.6533		-9.5743		2.4905e-002
 769		7.5746e+001	-19.5961		-9.5670		2.4894e-002
 770		7.5845e+001	-19.5686		-9.5658		2.4976e-002
 771		7.5944e+001	-19.5183		-9.5536		2.4965e-002
 772		7.6042e+001	-19.4612		-9.5410		2.4999e-002
 773		7.6141e+001	-19.3806		-9.5418		2.5107e-002
 774		7.6239e+001	-19.3248		-9.5292		2.5163e-002
 775		7.6338e+001	-19.2773		-9.5146		2.5171e-002
 776		7.6436e+001	-19.2022		-9.5064		2.5227e-002
 777		7.6534e+001	-19.1148		-9.4938		2.5201e-002
 778		7.6633e+001	-19.0687		-9.4922		2.5152e-002
 779		7.6731e+001	-18.9977		-9.4731		2.5178e-002
 780		7.6830e+001	-18.9213		-9.4605		2.5201e-002
 781		7.6929e+001	-18.8483		-9.4511		2.5216e-002
 782		7.7027e+001	-18.7802		-9.4341		2.5223e-002
 783		7.7126e+001	-18.7072		-9.4227		2.5137e-002
 784		7.7224e+001	-18.6115		-9.4113		2.5081e-002
 785		7.7323e+001	-18.5357		-9.4011		2.5062e-002
 786		7.7421e+001	-18.4572		-9.3869		2.4629e-002
 787		7.7519e+001	-18.3856		-9.3727		2.4958e-002
 788		7.7618e+001	-18.3167		-9.3694		2.4875e-002
 789		7.7716e+001	-18.2217		-9.3495		2.4887e-002
 790		7.7815e+001	-18.1467		-9.3296		2.4845e-002
 791		7.7913e+001	-18.0709		-9.3239		2.4666e-002
 792		7.8012e+001	-18.0110		-9.3105		2.4659e-002
 793		7.8111e+001	-17.9119		-9.2914		2.4789e-002
 794		7.8209e+001	-17.8444		-9.2796		2.4602e-002
 795		7.8308e+001	-17.7631		-9.2670		2.4573e-002
 796		7.8406e+001	-17.6929		-9.2524		2.4479e-002
 797		7.8504e+001	-17.5999		-9.2385		2.4408e-002
 798		7.8603e+001	-17.5235		-9.2194		2.4258e-002
 799		7.8701e+001	-17.4567		-9.2076		2.4165e-002
 800		7.8800e+001	-17.3851		-9.1975		2.3930e-002
 801		7.8898e+001	-17.2963		-9.1816		2.4049e-002
 802		7.8997e+001	-17.2150		-9.1613		2.4105e-002
 803		7.9096e+001	-17.1358		-9.1511		2.3930e-002
 804		7.9194e+001	-17.0525		-9.1324		2.3855e-002
 805		7.9293e+001	-16.9795		-9.1251		2.3731e-002
 806		7.9391e+001	-16.8983		-9.1056		2.3586e-002
 807		7.9490e+001	-16.8143		-9.0873		2.3653e-002
 808		7.9588e+001	-16.7454		-9.0723		2.3387e-002
 809		7.9686e+001	-16.6525		-9.0617		2.3391e-002
 810		7.9785e+001	-16.5767		-9.0426		2.3182e-002
 811		7.9883e+001	-16.5106		-9.0296		2.3141e-002
 812		7.9982e+001	-16.4218		-9.0182		2.2984e-002
 813		8.0081e+001	-16.3281		-8.9963		2.2793e-002
 814		8.0179e+001	-16.2669		-8.9837		2.2778e-002
 815		8.0278e+001	-16.1815		-8.9662		2.2606e-002
 816		8.0376e+001	-16.1106		-8.9487		2.2595e-002
 817		8.0475e+001	-16.0114		-8.9365		2.2483e-002
 818		8.0573e+001	-15.9419		-8.9170		2.2404e-002
 819		8.0671e+001	-15.8551		-8.9032		2.2247e-002
 820		8.0770e+001	-15.7924		-8.8881		2.2258e-002
 821		8.0868e+001	-15.7071		-8.8706		2.2012e-002
 822		8.0967e+001	-15.6554		-8.8552		2.2109e-002
 823		8.1066e+001	-15.5528		-8.8373		2.1806e-002
 824		8.1164e+001	-15.4743		-8.8206		2.1705e-002
 825		8.1263e+001	-15.3910		-8.8064		2.1567e-002
 826		8.1361e+001	-15.3118		-8.7832		2.1507e-002
 827		8.1460e+001	-15.2292		-8.7702		2.1387e-002
 828		8.1558e+001	-15.1548		-8.7540		2.1238e-002
 829		8.1656e+001	-15.0853		-8.7337		2.0815e-002
 830		8.1755e+001	-15.0095		-8.7150		2.0976e-002
 831		8.1853e+001	-14.9269		-8.6999		2.0924e-002
 832		8.1952e+001	-14.8484		-8.6865		2.0815e-002
 833		8.2051e+001	-14.7610		-8.6743		2.0655e-002
 834		8.2149e+001	-14.6962		-8.6511		2.0587e-002
 835		8.2248e+001	-14.6122		-8.6308		2.0371e-002
 836		8.2346e+001	-14.5358		-8.6125		2.0393e-002
 837		8.2445e+001	-14.4552		-8.5914		2.0184e-002
 838		8.2543e+001	-14.3781		-8.5776		2.0064e-002
 839		8.2641e+001	-14.2996		-8.5613		1.9989e-002
 840		8.2740e+001	-14.2170		-8.5402		1.9862e-002
 841		8.2838e+001	-14.1433		-8.5223		1.9671e-002
 842		8.2937e+001	-14.0614		-8.5036		1.9589e-002
 843		8.3035e+001	-13.9732		-8.4804		1.9425e-002
 844		8.3134e+001	-13.9071		-8.4637		1.9331e-002
 845		8.3233e+001	-13.8383		-8.4458		1.9197e-002
 846		8.3331e+001	-13.7549		-8.4247		1.9081e-002
 847		8.3430e+001	-13.6847		-8.4056		1.8939e-002
 848		8.3528e+001	-13.5945		-8.3914		1.8733e-002
 849		8.3626e+001	-13.5139		-8.3678		1.8554e-002
 850		8.3725e+001	-13.4396		-8.3442		1.8542e-002
 851		8.3823e+001	-13.3535		-8.3308		1.8404e-002
 852		8.3922e+001	-13.2874		-8.3072		1.8356e-002
 853		8.4020e+001	-13.2027		-8.2889		1.8161e-002
 854		8.4119e+001	-13.1304		-8.2702		1.8012e-002
 855		8.4218e+001	-13.0478		-8.2503		1.7907e-002
 856		8.4316e+001	-12.9762		-8.2247		1.7735e-002
 857		8.4415e+001	-12.8956		-8.2088		1.7335e-002
 858		8.4513e+001	-12.8068		-8.1861		1.7477e-002
 859		8.4612e+001	-12.7407		-8.1678		1.7402e-002
 860		8.4710e+001	-12.6636		-8.1422		1.7212e-002
 861		8.4808e+001	-12.5678		-8.1223		1.7159e-002
 862		8.4907e+001	-12.4969		-8.0987		1.7040e-002
 863		8.5005e+001	-12.4170		-8.0812		1.6703e-002
 864		8.5104e+001	-12.3558		-8.0552		1.7081e-002
 865		8.5203e+001	-12.2497		-8.0328		1.6546e-002
 866		8.5301e+001	-12.1878		-8.0117		1.6468e-002
 867		8.5400e+001	-12.0996		-7.9877		1.6292e-002
 868		8.5498e+001	-12.0342		-7.9666		1.6142e-002
 869		8.5597e+001	-11.9433		-7.9442		1.5922e-002
 870		8.5695e+001	-11.8614		-7.9219		1.5821e-002
 871		8.5793e+001	-11.8008		-7.8979		1.5694e-002
 872		8.5892e+001	-11.7092		-7.8784		1.5567e-002
 873		8.5990e+001	-11.6376		-7.8556		1.5369e-002
 874		8.6089e+001	-11.5611		-7.8300		1.5298e-002
 875		8.6188e+001	-11.4689		-7.8011		1.5204e-002
 876		8.6286e+001	-11.3918		-7.7836		1.5189e-002
 877		8.6385e+001	-11.3105		-7.7629		1.4509e-002
 878		8.6483e+001	-11.2430		-7.7316		1.4692e-002
 879		8.6582e+001	-11.1645		-7.7060		1.4569e-002
 880		8.6680e+001	-11.0874		-7.6877		1.4449e-002
 881		8.6778e+001	-11.0041		-7.6605		1.4277e-002
 882		8.6877e+001	-10.9332		-7.6336		1.4161e-002
 883		8.6975e+001	-10.8499		-7.6137		1.3989e-002
 884		8.7074e+001	-10.7610		-7.5849		1.4225e-002
 885		8.7172e+001	-10.6929		-7.5605		1.3705e-002
 886		8.7271e+001	-10.6068		-7.5316		1.3675e-002
 887		8.7370e+001	-10.5359		-7.5040		1.3413e-002
 888		8.7468e+001	-10.4587		-7.4832		1.3298e-002
 889		8.7567e+001	-10.3617		-7.4576		1.3084e-002
 890		8.7665e+001	-10.2976		-7.4259		1.2976e-002
 891		8.7763e+001	-10.2219		-7.4007		1.2774e-002
 892		8.7862e+001	-10.1475		-7.3784		1.2748e-002
 893		8.7960e+001	-10.0614		-7.3511		1.2561e-002
 894		8.8059e+001	-9.9823		-7.3190		1.2404e-002
 895		8.8157e+001	-9.9044		-7.2905		1.2311e-002
 896		8.8256e+001	-9.8328		-7.2645		1.2101e-002
 897		8.8355e+001	-9.7357		-7.2369		1.1970e-002
 898		8.8453e+001	-9.6772		-7.2101		1.1813e-002
 899		8.8552e+001	-9.5966		-7.1808		1.1611e-002
 900		8.8650e+001	-9.5120		-7.1495		1.1507e-002
 901		8.8749e+001	-9.4383		-7.1214		1.1376e-002
 902		8.8847e+001	-9.3701		-7.0877		1.1178e-002
 903		8.8945e+001	-9.2744		-7.0718		1.1152e-002
 904		8.9044e+001	-9.1993		-7.0369		1.0868e-002
 905		8.9142e+001	-9.1112		-7.0040		1.0389e-002
 906		8.9241e+001	-9.0485		-6.9747		1.0602e-002
 907		8.9340e+001	-8.9549		-6.9381		1.0460e-002
 908		8.9438e+001	-8.8888		-6.9109		1.0322e-002
 909		8.9537e+001	-8.7972		-6.8824		1.0150e-002
 910		8.9635e+001	-8.7332		-6.8474		9.9591e-003
 911		8.9734e+001	-8.6457		-6.8186		9.8021e-003
 912		8.9832e+001	-8.5693		-6.7828		9.6488e-003
 913		8.9930e+001	-8.4901		-6.7531		9.5255e-003
 914		9.0029e+001	-8.4233		-6.7214		9.3946e-003
 915		9.0127e+001	-8.3345		-6.6893		9.2376e-003
 916		9.0226e+001	-8.2526		-6.6507		9.1292e-003
 917		9.0325e+001	-8.1699		-6.6210		9.0694e-003
 918		9.0423e+001	-8.0901		-6.5901		8.7516e-003
 919		9.0522e+001	-8.0246		-6.5511		8.4151e-003
 920		9.0620e+001	-7.9537		-6.5129		8.4189e-003
 921		9.0719e+001	-7.8594		-6.4824		8.2581e-003
 922		9.0817e+001	-7.7933		-6.4454		8.1535e-003
 923		9.0915e+001	-7.7038		-6.4133		8.0077e-003
 924		9.1014e+001	-7.6328		-6.3759		7.8320e-003
 925		9.1112e+001	-7.5413		-6.3446		7.5703e-003
 926		9.1211e+001	-7.4703		-6.3068		7.5591e-003
 927		9.1310e+001	-7.3843		-6.2702		7.2151e-003
 928		9.1408e+001	-7.3202		-6.2332		7.1030e-003
 929		9.1507e+001	-7.2245		-6.1934		6.9086e-003
 930		9.1605e+001	-7.1619		-6.1556		6.8076e-003
 931		9.1704e+001	-7.0689		-6.1194		6.7142e-003
 932		9.1802e+001	-7.0042		-6.0763		6.4413e-003
 933		9.1900e+001	-6.9064		-6.0413		6.2057e-003
 934		9.1999e+001	-6.8492		-6.0027		6.0973e-003
 935		9.2097e+001	-6.7625		-5.9641		6.0338e-003
 936		9.2196e+001	-6.6860		-5.9243		5.8618e-003
 937		9.2294e+001	-6.5938		-5.8816		5.6637e-003
 938		9.2393e+001	-6.5146		-5.8442		5.4917e-003
 939		9.2492e+001	-6.4471		-5.8039		5.2824e-003
 940		9.2590e+001	-6.3693		-5.7625		5.1702e-003
 941		9.2689e+001	-6.2839		-5.7137		4.9833e-003
 942		9.2787e+001	-6.2171		-5.6775		4.8375e-003
 943		9.2885e+001	-6.1269		-5.6381		4.7403e-003
 944		9.2984e+001	-6.0512		-5.5930		4.5384e-003
 945		9.3082e+001	-5.9672		-5.5539		4.3104e-003
 946		9.3181e+001	-5.8963		-5.5096		4.1347e-003
 947		9.3279e+001	-5.8233		-5.4678		4.2207e-003
 948		9.3378e+001	-5.7393		-5.4190		3.8281e-003
 949		9.3477e+001	-5.6553		-5.3678		3.6823e-003
 950		9.3575e+001	-5.5733		-5.3230		3.5963e-003
 951		9.3674e+001	-5.4983		-5.2747		3.3459e-003
 952		9.3772e+001	-5.4184		-5.2299		3.1926e-003
 953		9.3871e+001	-5.3351		-5.1844		2.9533e-003
 954		9.3969e+001	-5.2648		-5.1369		2.9720e-003
 955		9.4067e+001	-5.1781		-5.0925		2.6468e-003
 956		9.4166e+001	-5.1010		-5.0381		2.5309e-003
 957		9.4264e+001	-5.0218		-4.9962		2.3851e-003
 958		9.4363e+001	-4.9536		-4.9397		2.1571e-003
 959		9.4462e+001	-4.8648		-4.8966		1.9066e-003
 960		9.4560e+001	-4.7918		-4.8430		1.9103e-003
 961		9.4659e+001	-4.7092		-4.7966		1.9103e-003
 962		9.4757e+001	-4.6327		-4.7531		1.6000e-003
 963		9.4856e+001	-4.5453		-4.6938		1.4393e-003
 964		9.4954e+001	-4.4709		-4.6446		1.3795e-003
 965		9.5052e+001	-4.4014		-4.5917		1.0505e-003
 966		9.5151e+001	-4.3187		-4.5344		8.6731e-004
 967		9.5249e+001	-4.2492		-4.4877		6.5048e-004
 968		9.5348e+001	-4.1624		-4.4324		5.3459e-004
 969		9.5447e+001	-4.0764		-4.3864		3.6263e-004
 970		9.5545e+001	-4.0109		-4.3242		2.9160e-004
 971		9.5644e+001	-3.9200		-4.2690		4.1122e-005
 972		9.5742e+001	-3.8519		-4.2186		-1.3084e-004
 973		9.5841e+001	-3.7575		-4.1600		-1.9066e-004
 974		9.5939e+001	-3.7018		-4.1003		-2.8412e-004
 975		9.6037e+001	-3.6102		-4.0389		-5.8693e-004
 976		9.6136e+001	-3.5303		-3.9917		-7.8880e-004
 977		9.6234e+001	-3.4429		-3.9259		-9.0469e-004
 978		9.6333e+001	-3.3740		-3.8665		-9.9815e-004
 979		9.6432e+001	-3.3017		-3.8116		-1.2711e-003
 980		9.6530e+001	-3.2177		-3.7507		-1.3421e-003
 981		9.6629e+001	-3.1564		-3.6921		-1.3982e-003
 982		9.6727e+001	-3.0655		-3.6303		-1.7458e-003
 983		9.6826e+001	-2.9843		-3.5714		-1.8542e-003
 984		9.6924e+001	-2.9037		-3.5096		-1.9776e-003
 985		9.7022e+001	-2.8149		-3.4425		-2.1571e-003
 986		9.7121e+001	-2.7460		-3.3811		-2.3851e-003
 987		9.7219e+001	-2.6634		-3.3202		-2.4300e-003
 988		9.7318e+001	-2.5925		-3.2555		-2.6318e-003
 989		9.7416e+001	-2.5071		-3.1893		-2.6991e-003
 990		9.7515e+001	-2.4437		-3.1226		-2.8711e-003
 991		9.7614e+001	-2.3577		-3.0580		-3.0468e-003
 992		9.7712e+001	-2.2785		-2.9925		-3.1926e-003
 993		9.7811e+001	-2.1910		-2.9214		-3.4244e-003
 994		9.7909e+001	-2.1105		-2.8519		-3.4505e-003
 995		9.8007e+001	-2.0389		-2.7893		-3.7048e-003
 996		9.8106e+001	-1.9569		-2.7185		-3.7309e-003
 997		9.8204e+001	-1.8743		-2.6429		-3.9739e-003
 998		9.8303e+001	-1.8006		-2.5783		-4.0375e-003
 999		9.8401e+001	-1.7263		-2.5039		-4.1945e-003
1000		9.8500e+001	-1.6512		-2.4344		-4.3814e-003
1001		9.8599e+001	-1.5734		-2.3527		-4.4263e-003
1002		9.8697e+001	-1.4949		-2.2844		-4.6319e-003
1003		9.8796e+001	-1.4026		-2.2165		-4.8038e-003
1004		9.8894e+001	-1.3338		-2.1360		-4.7552e-003
1005		9.8993e+001	-1.2560		-2.0649		-5.0992e-003
1006		9.9091e+001	-1.1788		-1.9868		-5.1702e-003
1007		9.9189e+001	-1.0907		-1.9116		-5.2786e-003
1008		9.9288e+001	-1.0191		-1.8311		-5.4394e-003
1009		9.9386e+001	-0.9468		-1.7486		-5.4730e-003
1010		9.9485e+001	-0.8655		-1.6693		-5.5665e-003
1011		9.9584e+001	-0.7774		-1.5909		-5.8656e-003
1012		9.9682e+001	-0.7003		-1.5124		-5.8730e-003
1013		9.9781e+001	-0.6362		-1.4271		-5.9590e-003
1014		9.9879e+001	-0.5515		-1.3441		-6.2132e-003
1015		9.9978e+001	-0.4648		-1.2596		-6.2170e-003
1016		1.0008e+002	-0.4049		-1.1815		-6.1086e-003
1017		1.0017e+002	-0.3119		-1.0905		-6.4562e-003

PMax (µC/cm2):		9.57e+000
Pr (µC/cm2):		7.19e-001
-Pr (µC/cm2):		-1.09e+000
Vc:			5.73e+001
-Vc:			-6.74e+001
C (Max-Eff) (nF):	4.27e+000
Vert. Eccentricity (µC/cm2):	-1.86e-001

Horiz. Eccentricity (Volts):	-5.02e+000

Offset (µC/cm2):	4.32e-001



Hysteresis Version: 4.6.11 - Radiant Technologies, Inc., 1999 - 12/12/11

