»»»»»»»»»»»»»»»»»»»»»»»»»»»»»»»»»»»» Hysteresis ««««««««««««««««««««««««««««««««««««
»»»  Version:			4.6.11
»»»  Vision Version:		4.6.5 (R)
»»»  Vision Compiled:		7 December 2011
»»»  Driver Version:		4.6.17
»»»  Tester Name:		PPM21211-813
»»»  Tester S/N:		PPM21211-813                    
»»»  Internal Amp Type:		No Internal Amp
»»»  Internal Amp S/N:		100000
»»»  Execution Count:		0
»»»»»»»»»»»»»»»»»»»»»»»»»»»»»»»»»»»»»»»»»»««««««««««««««««««««««««««««««««««««««««««

Stored:				5/16/2024 - 22:13:28
Configured:			05/16/24 07:33:06 PM
Executed:			05/16/24 10:12:55 PM

»»»»»»»»»»»»»»»»»»»»»»»»»»»»»»»»»»» Sample Info ««««««««««««««««««««««««««««««««««««
Sample Name:			
Lot Name:			
Wafer Name:			
Die Row/Column:			0/0
Capacitor Number:		0
Sample Area (cm2):		9.44e-001
Sample Thickness (µm):		1.10e+003

Mux Loop Adjustment:		Disabled

Amplifier:			High Voltage (HVA)
HVI Channel/Port:		1/1
Drive Gain Factor:			1000.00r
Drive Voltage Limit:			4000.00r

»»»»»»»»»»»»»»»»»»»»»»»»»»»»»»»»»»» Tester Info «««««««««««««««««««««««««««««««««««
Tester Name:			PPM21211-813
Tester Serial Number:		PPM21211-813                    
Return Signal Amp. Level:	0.00019

»»»»»»»»»»»»»»»»»»»»»»»»»»»»»»»» Hysteresis Info ««««««««««««««««««««««««««««««««««
Task Name:			Hyst-2
Volts:				2198.00
Field:				20.00 (kV/cm)
Hysteresis Period (ms):		1.00e+002
Preset:				Enabled
Preset Delay (ms):		1.00e+002
Profile:			Standard Bipolar

Sensor Offset:			0.00  
Sensor Scale:			-0.05 
Sensor Impedance (Ohms):	50
Sensor Label:			%

»»»»»»»»»»»»»»»»»»»»»»»»»»»»»»»»»»»»»» Data «««««««««««««««««««««««««««««««««««««««
Points:				1017

Valid Data

Point		Time (ms)	Field (kV/cm)	Measured Polarization	Sensor
   1		9.8500e-002	-0.0118		-3.2021		-1.1671e-002
   2		1.9700e-001	-0.0028		-3.1838		-1.1671e-002
   3		2.9550e-001	0.0465		-3.1753		-1.1716e-002
   4		3.9400e-001	0.0833		-3.1507		-1.1731e-002
   5		4.9250e-001	0.1236		-3.1222		-1.1709e-002
   6		5.9100e-001	0.1784		-3.0890		-1.1735e-002
   7		6.8950e-001	0.2548		-3.0512		-1.1899e-002
   8		7.8800e-001	0.3110		-2.9973		-1.1795e-002
   9		8.8650e-001	0.3964		-2.9365		-1.1899e-002
  10		9.8500e-001	0.4332		-2.8715		-1.1813e-002
  11		1.0835e+000	0.5089		-2.7865		-1.1997e-002
  12		1.1820e+000	0.5824		-2.6951		-1.1978e-002
  13		1.2805e+000	0.6442		-2.5923		-1.2015e-002
  14		1.3790e+000	0.7234		-2.4818		-1.1982e-002
  15		1.4775e+000	0.7983		-2.3569		-1.2094e-002
  16		1.5760e+000	0.8761		-2.2260		-1.2288e-002
  17		1.6745e+000	0.9601		-2.0832		-1.2277e-002
  18		1.7730e+000	1.0316		-1.9332		-1.2438e-002
  19		1.8715e+000	1.1031		-1.7705		-1.2520e-002
  20		1.9700e+000	1.1774		-1.6167		-1.2688e-002
  21		2.0685e+000	1.2697		-1.4467		-1.2520e-002
  22		2.1670e+000	1.3315		-1.2712		-1.2815e-002
  23		2.2655e+000	1.4190		-1.0889		-1.2834e-002
  24		2.3640e+000	1.4835		-0.8896		-1.2897e-002
  25		2.4625e+000	1.5849		-0.7009		-1.2935e-002
  26		2.5610e+000	1.6376		-0.5021		-1.2972e-002
  27		2.6595e+000	1.7251		-0.2938		-1.3092e-002
  28		2.7580e+000	1.8105		-0.0695		-1.3212e-002
  29		2.8565e+000	1.8855		0.1549		-1.3189e-002
  30		2.9550e+000	1.9771		0.3827		-1.3200e-002
  31		3.0535e+000	2.0389		0.6236		-1.3010e-002
  32		3.1520e+000	2.1201		0.8599		-1.2942e-002
  33		3.2505e+000	2.2104		1.1093		-1.2834e-002
  34		3.3490e+000	2.2729		1.3451		-1.2815e-002
  35		3.4475e+000	2.3596		1.5907		-1.2860e-002
  36		3.5460e+000	2.4360		1.8397		-1.2598e-002
  37		3.6445e+000	2.5012		2.0752		-1.2408e-002
  38		3.7430e+000	2.5957		2.3254		-1.2142e-002
  39		3.8415e+000	2.6651		2.5651		-1.1866e-002
  40		3.9400e+000	2.7588		2.8018		-1.1727e-002
  41		4.0385e+000	2.8386		3.0338		-1.1466e-002
  42		4.1370e+000	2.9171		3.2645		-1.1208e-002
  43		4.2355e+000	2.9830		3.4842		-1.0632e-002
  44		4.3340e+000	3.0552		3.7031		-1.0482e-002
  45		4.4325e+000	3.1483		3.9194		-1.0109e-002
  46		4.5310e+000	3.2163		4.1306		-9.6600e-003
  47		4.6295e+000	3.3003		4.3371		-9.2301e-003
  48		4.7280e+000	3.3718		4.5372		-8.6245e-003
  49		4.8265e+000	3.4648		4.7361		-8.3628e-003
  50		4.9250e+000	3.5544		4.9265		-8.3105e-003
  51		5.0235e+000	3.6092		5.1121		-7.3833e-003
  52		5.1220e+000	3.6911		5.2978		-6.7964e-003
  53		5.2205e+000	3.7717		5.4759		-6.2132e-003
  54		5.3190e+000	3.8362		5.6476		-5.8207e-003
  55		5.4175e+000	3.9279		5.8129		-5.3272e-003
  56		5.5160e+000	4.0021		5.9841		-4.7478e-003
  57		5.6145e+000	4.0938		6.1426		-3.9141e-003
  58		5.7130e+000	4.1681		6.3003		-3.5141e-003
  59		5.8115e+000	4.2382		6.4520		-2.8674e-003
  60		5.9100e+000	4.3215		6.5973		-2.2767e-003
  61		6.0085e+000	4.4062		6.7426		-1.6262e-003
  62		6.1070e+000	4.4798		6.8833		-1.0617e-003
  63		6.2055e+000	4.5499		7.0175		-4.2992e-004
  64		6.3040e+000	4.6290		7.1501		3.7010e-004
  65		6.4025e+000	4.7220		7.2806		2.2804e-004
  66		6.5010e+000	4.7783		7.4064		1.5253e-003
  67		6.5995e+000	4.8741		7.5321		2.2991e-003
  68		6.6980e+000	4.9525		7.6486		2.8374e-003
  69		6.7965e+000	5.0212		7.7688		3.5365e-003
  70		6.8950e+000	5.0927		7.8797		4.2094e-003
  71		6.9935e+000	5.1712		7.9885		4.7777e-003
  72		7.0920e+000	5.2642		8.1037		5.3758e-003
  73		7.1905e+000	5.3413		8.2052		6.4001e-003
  74		7.2890e+000	5.4142		8.3136		6.7291e-003
  75		7.3875e+000	5.4982		8.4194		7.4319e-003
  76		7.4860e+000	5.5773		8.5227		8.1497e-003
  77		7.5845e+000	5.6592		8.6123		8.7142e-003
  78		7.6830e+000	5.7411		8.7126		9.3535e-003
  79		7.7815e+000	5.8140		8.8035		1.0041e-002
  80		7.8800e+000	5.8946		8.8962		1.0554e-002
  81		7.9785e+000	5.9779		8.9931		1.1346e-002
  82		8.0770e+000	6.0480		9.0729		1.1963e-002
  83		8.1755e+000	6.1327		9.1613		1.2714e-002
  84		8.2740e+000	6.2160		9.2442		1.3283e-002
  85		8.3725e+000	6.2854		9.3271		1.4000e-002
  86		8.4710e+000	6.3645		9.4061		1.4344e-002
  87		8.5695e+000	6.4423		9.4826		1.5103e-002
  88		8.6680e+000	6.5062		9.5659		1.6217e-002
  89		8.7665e+000	6.6047		9.6360		1.6400e-002
  90		8.8650e+000	6.6672		9.7133		1.7111e-002
  91		8.9635e+000	6.7477		9.7834		1.7649e-002
  92		9.0620e+000	6.8338		9.8489		1.8258e-002
  93		9.1605e+000	6.9185		9.9300		1.8842e-002
  94		9.2590e+000	6.9963		9.9946		1.9331e-002
  95		9.3575e+000	7.0699		10.0669		1.9956e-002
  96		9.4560e+000	7.1414		10.1323		2.0886e-002
  97		9.5545e+000	7.2386		10.1965		2.1212e-002
  98		9.6530e+000	7.2996		10.2636		2.1829e-002
  99		9.7515e+000	7.3906		10.3239		2.2415e-002
 100		9.8500e+000	7.4635		10.3860		2.3017e-002
 101		9.9485e+000	7.5419		10.4535		2.3537e-002
 102		1.0047e+001	7.6134		10.5096		2.4195e-002
 103		1.0146e+001	7.7196		10.5721		2.4700e-002
 104		1.0244e+001	7.7724		10.6358		2.5230e-002
 105		1.0342e+001	7.8689		10.6851		2.5780e-002
 106		1.0441e+001	7.9286		10.7429		2.6341e-002
 107		1.0540e+001	7.9980		10.7990		2.7025e-002
 108		1.0638e+001	8.0862		10.8547		2.7451e-002
 109		1.0736e+001	8.1716		10.9065		2.8031e-002
 110		1.0835e+001	8.2556		10.9622		2.8483e-002
 111		1.0934e+001	8.3069		11.0204		2.9186e-002
 112		1.1032e+001	8.4062		11.0706		2.9604e-002
 113		1.1131e+001	8.4881		11.1224		3.0124e-002
 114		1.1229e+001	8.5534		11.1721		3.0711e-002
 115		1.1328e+001	8.6499		11.2240		3.1227e-002
 116		1.1426e+001	8.7228		11.2707		3.1761e-002
 117		1.1525e+001	8.7998		11.3217		3.2277e-002
 118		1.1623e+001	8.8797		11.3701		3.2076e-002
 119		1.1722e+001	8.9540		11.4160		3.3137e-002
 120		1.1820e+001	9.0414		11.4636		3.3806e-002
 121		1.1919e+001	9.1088		11.5180		3.4345e-002
 122		1.2017e+001	9.1678		11.5613		3.4827e-002
 123		1.2116e+001	9.2747		11.6009		3.5261e-002
 124		1.2214e+001	9.3510		11.6468		3.5683e-002
 125		1.2313e+001	9.4413		11.6922		3.6184e-002
 126		1.2411e+001	9.5003		11.7347		3.6648e-002
 127		1.2509e+001	9.5864		11.7776		3.7253e-002
 128		1.2608e+001	9.6620		11.8214		3.7653e-002
 129		1.2707e+001	9.7530		11.8652		3.8192e-002
 130		1.2805e+001	9.8266		11.9064		3.8550e-002
 131		1.2903e+001	9.9029		11.9455		3.8984e-002
 132		1.3002e+001	9.9717		11.9850		3.9306e-002
 133		1.3101e+001	10.0473		12.0296		3.9863e-002
 134		1.3199e+001	10.1327		12.0666		4.0438e-002
 135		1.3297e+001	10.2021		12.1065		4.0779e-002
 136		1.3396e+001	10.2861		12.1401		4.1313e-002
 137		1.3495e+001	10.3722		12.1864		4.1739e-002
 138		1.3593e+001	10.4375		12.2234		4.2147e-002
 139		1.3692e+001	10.5208		12.2582		4.2382e-002
 140		1.3790e+001	10.5978		12.2948		4.2992e-002
 141		1.3889e+001	10.6652		12.3343		4.3380e-002
 142		1.3987e+001	10.7485		12.3734		4.3930e-002
 143		1.4086e+001	10.8346		12.4027		4.4248e-002
 144		1.4184e+001	10.9213		12.4414		4.4708e-002
 145		1.4283e+001	10.9915		12.4826		4.5070e-002
 146		1.4381e+001	11.0713		12.5111		4.5351e-002
 147		1.4480e+001	11.1317		12.5493		4.6042e-002
 148		1.4578e+001	11.2275		12.5757		4.6274e-002
 149		1.4677e+001	11.3448		12.6343		4.6696e-002
 150		1.4775e+001	11.3705		12.6623		4.7089e-002
 151		1.4874e+001	11.4628		12.6959		4.7455e-002
 152		1.4972e+001	11.5323		12.7286		4.7717e-002
 153		1.5070e+001	11.6149		12.7648		4.8128e-002
 154		1.5169e+001	11.6940		12.7941		4.8554e-002
 155		1.5268e+001	11.7704		12.8276		4.9025e-002
 156		1.5366e+001	11.8544		12.8595		4.9463e-002
 157		1.5464e+001	11.9280		12.8905		4.9657e-002
 158		1.5563e+001	12.0071		12.9199		5.0031e-002
 159		1.5662e+001	12.0814		12.9492		5.0521e-002
 160		1.5760e+001	12.1640		12.9742		5.0876e-002
 161		1.5858e+001	12.2535		13.0099		5.0827e-002
 162		1.5957e+001	12.3209		13.0363		5.1497e-002
 163		1.6055e+001	12.4035		13.0669		5.1825e-002
 164		1.6154e+001	12.4722		13.0966		5.2267e-002
 165		1.6253e+001	12.5548		13.1204		5.2637e-002
 166		1.6351e+001	12.6194		13.1574		5.2910e-002
 167		1.6450e+001	12.7096		13.1846		5.3257e-002
 168		1.6548e+001	12.7923		13.2114		5.3725e-002
 169		1.6647e+001	12.8769		13.2432		5.3889e-002
 170		1.6745e+001	12.9436		13.2653		5.4237e-002
 171		1.6843e+001	13.0213		13.2968		5.4637e-002
 172		1.6942e+001	13.1088		13.3184		5.4996e-002
 173		1.7041e+001	13.1817		13.3520		5.5414e-002
 174		1.7139e+001	13.2581		13.3779		5.5721e-002
 175		1.7238e+001	13.3462		13.4013		5.5968e-002
 176		1.7336e+001	13.4344		13.4289		5.5766e-002
 177		1.7435e+001	13.5038		13.4531		5.6611e-002
 178		1.7533e+001	13.5712		13.4808		5.7048e-002
 179		1.7631e+001	13.6385		13.5092		5.7299e-002
 180		1.7730e+001	13.7232		13.5330		5.7661e-002
 181		1.7828e+001	13.8141		13.5581		5.7859e-002
 182		1.7927e+001	13.8919		13.5849		5.8211e-002
 183		1.8026e+001	13.9738		13.6057		5.8375e-002
 184		1.8124e+001	14.0529		13.6337		5.8854e-002
 185		1.8223e+001	14.1244		13.6541		5.9112e-002
 186		1.8321e+001	14.1987		13.6792		5.9527e-002
 187		1.8419e+001	14.2820		13.7051		5.9822e-002
 188		1.8518e+001	14.3598		13.7298		6.0076e-002
 189		1.8616e+001	14.4424		13.7493		6.0386e-002
 190		1.8715e+001	14.5201		13.7808		6.0753e-002
 191		1.8814e+001	14.5868		13.7995		6.1246e-002
 192		1.8912e+001	14.6763		13.8233		6.1291e-002
 193		1.9011e+001	14.7666		13.8428		6.1575e-002
 194		1.9109e+001	14.8318		13.8704		6.1867e-002
 195		1.9208e+001	14.9165		13.8908		6.2054e-002
 196		1.9306e+001	14.9825		13.9091		6.2372e-002
 197		1.9404e+001	15.0672		13.9342		6.2667e-002
 198		1.9503e+001	15.1345		13.9550		6.2805e-002
 199		1.9602e+001	15.2199		13.9809		6.3287e-002
 200		1.9700e+001	15.2984		13.9988		6.3519e-002
 201		1.9799e+001	15.3789		14.0226		6.4065e-002
 202		1.9897e+001	15.4622		14.0455		6.4140e-002
 203		1.9996e+001	15.5413		14.0684		6.4394e-002
 204		2.0094e+001	15.6038		14.0846		6.4753e-002
 205		2.0192e+001	15.6906		14.1071		6.5183e-002
 206		2.0291e+001	15.7857		14.1305		6.5336e-002
 207		2.0390e+001	15.8516		14.1483		6.5493e-002
 208		2.0488e+001	15.9238		14.1641		6.5919e-002
 209		2.0587e+001	15.9974		14.1840		6.5990e-002
 210		2.0685e+001	16.0835		14.2108		6.6312e-002
 211		2.0784e+001	16.1599		14.2337		6.6730e-002
 212		2.0882e+001	16.2244		14.2533		6.6944e-002
 213		2.0980e+001	16.3195		14.2673		6.7041e-002
 214		2.1079e+001	16.4008		14.2860		6.7284e-002
 215		2.1177e+001	16.4716		14.3081		6.7624e-002
 216		2.1276e+001	16.5521		14.3268		6.7916e-002
 217		2.1375e+001	16.6354		14.3459		6.8185e-002
 218		2.1473e+001	16.7062		14.3617		6.8364e-002
 219		2.1572e+001	16.7909		14.3854		6.8652e-002
 220		2.1670e+001	16.8437		14.4088		6.9303e-002
 221		2.1769e+001	16.9443		14.4199		6.9164e-002
 222		2.1867e+001	17.0297		14.4424		6.9396e-002
 223		2.1965e+001	17.0991		14.4632		6.9721e-002
 224		2.2064e+001	17.1956		14.4836		7.0017e-002
 225		2.2163e+001	17.2720		14.4989		7.0151e-002
 226		2.2261e+001	17.3310		14.5146		7.0446e-002
 227		2.2360e+001	17.4122		14.5333		7.0364e-002
 228		2.2458e+001	17.4942		14.5495		7.0903e-002
 229		2.2557e+001	17.5844		14.5677		7.1134e-002
 230		2.2655e+001	17.6670		14.5864		7.1426e-002
 231		2.2753e+001	17.7468		14.6107		7.1635e-002
 232		2.2852e+001	17.8093		14.6196		7.1938e-002
 233		2.2951e+001	17.8940		14.6366		7.2095e-002
 234		2.3049e+001	17.9745		14.6532		7.2260e-002
 235		2.3148e+001	18.0585		14.6676		7.2630e-002
 236		2.3246e+001	18.1301		14.6876		7.2918e-002
 237		2.3345e+001	18.2002		14.7050		7.3131e-002
 238		2.3443e+001	18.2744		14.7199		7.3355e-002
 239		2.3541e+001	18.3730		14.7420		7.3579e-002
 240		2.3640e+001	18.4424		14.7611		7.3751e-002
 241		2.3738e+001	18.5209		14.7768		7.4088e-002
 242		2.3837e+001	18.6146		14.7904		7.4245e-002
 243		2.3936e+001	18.6708		14.8040		7.4488e-002
 244		2.4034e+001	18.7507		14.8180		7.4779e-002
 245		2.4133e+001	18.8326		14.8372		7.4899e-002
 246		2.4231e+001	18.9145		14.8546		7.5340e-002
 247		2.4329e+001	18.9874		14.8737		7.5396e-002
 248		2.4428e+001	19.0638		14.8860		7.5557e-002
 249		2.4526e+001	19.1630		14.9017		7.5800e-002
 250		2.4625e+001	19.2068		14.9175		7.6058e-002
 251		2.4724e+001	19.3074		14.9323		7.6379e-002
 252		2.4822e+001	19.3894		14.9481		7.6544e-002
 253		2.4921e+001	19.4949		14.9816		7.6716e-002
 254		2.5019e+001	19.5317		14.9838		7.6959e-002
 255		2.5118e+001	19.6171		15.0008		7.7082e-002
 256		2.5216e+001	19.6448		15.0139		7.7355e-002
 257		2.5314e+001	19.6788		15.0105		7.7561e-002
 258		2.5413e+001	19.6511		15.0114		7.7710e-002
 259		2.5512e+001	19.6400		15.0097		7.7931e-002
 260		2.5610e+001	19.5935		15.0131		7.8024e-002
 261		2.5709e+001	19.5671		15.0088		7.8241e-002
 262		2.5807e+001	19.5150		15.0067		7.8391e-002
 263		2.5906e+001	19.4747		14.9999		7.8611e-002
 264		2.6004e+001	19.4109		14.9965		7.8634e-002
 265		2.6102e+001	19.3616		14.9859		7.8720e-002
 266		2.6201e+001	19.2790		14.9804		7.8854e-002
 267		2.6299e+001	19.2297		14.9706		7.8865e-002
 268		2.6398e+001	19.1561		14.9561		7.8884e-002
 269		2.6497e+001	19.0811		14.9481		7.9019e-002
 270		2.6595e+001	19.0159		14.9451		7.9015e-002
 271		2.6694e+001	18.9423		14.9328		7.8940e-002
 272		2.6792e+001	18.8687		14.9192		7.9075e-002
 273		2.6890e+001	18.8027		14.9128		7.9019e-002
 274		2.6989e+001	18.7215		14.8975		7.8940e-002
 275		2.7087e+001	18.6486		14.8966		7.8899e-002
 276		2.7186e+001	18.5688		14.8737		7.8914e-002
 277		2.7285e+001	18.4688		14.8652		7.8906e-002
 278		2.7383e+001	18.4119		14.8567		7.8705e-002
 279		2.7482e+001	18.3466		14.8444		7.8671e-002
 280		2.7580e+001	18.2585		14.8389		7.8626e-002
 281		2.7679e+001	18.1932		14.8244		7.8563e-002
 282		2.7777e+001	18.1058		14.8087		7.8499e-002
 283		2.7875e+001	18.0377		14.7955		7.8346e-002
 284		2.7974e+001	17.9440		14.7862		7.8069e-002
 285		2.8073e+001	17.8732		14.7730		7.8069e-002
 286		2.8171e+001	17.8024		14.7611		7.7998e-002
 287		2.8270e+001	17.7295		14.7466		7.7949e-002
 288		2.8368e+001	17.6399		14.7377		7.7886e-002
 289		2.8467e+001	17.5657		14.7194		7.7725e-002
 290		2.8565e+001	17.4740		14.7075		7.7520e-002
 291		2.8663e+001	17.3970		14.6897		7.7333e-002
 292		2.8762e+001	17.3234		14.6791		7.7220e-002
 293		2.8860e+001	17.2394		14.6693		7.7071e-002
 294		2.8959e+001	17.1644		14.6544		7.7063e-002
 295		2.9058e+001	17.0873		14.6379		7.6824e-002
 296		2.9156e+001	16.9964		14.6264		7.6682e-002
 297		2.9255e+001	16.9325		14.6124		7.6454e-002
 298		2.9353e+001	16.8444		14.5924		7.6263e-002
 299		2.9451e+001	16.7541		14.5915		7.6566e-002
 300		2.9550e+001	16.6923		14.5745		7.5968e-002
 301		2.9648e+001	16.6125		14.5592		7.5882e-002
 302		2.9747e+001	16.5299		14.5414		7.5699e-002
 303		2.9846e+001	16.4591		14.5299		7.5490e-002
 304		2.9944e+001	16.3681		14.5121		7.5258e-002
 305		3.0043e+001	16.2918		14.4959		7.5078e-002
 306		3.0141e+001	16.2203		14.4828		7.4817e-002
 307		3.0240e+001	16.1279		14.4679		7.4787e-002
 308		3.0338e+001	16.0537		14.4551		7.4562e-002
 309		3.0436e+001	15.9898		14.4386		7.4364e-002
 310		3.0535e+001	15.9065		14.4237		7.4196e-002
 311		3.0634e+001	15.8246		14.4071		7.3946e-002
 312		3.0732e+001	15.7420		14.3965		7.3781e-002
 313		3.0831e+001	15.6725		14.3782		7.3819e-002
 314		3.0929e+001	15.5934		14.3642		7.3475e-002
 315		3.1028e+001	15.5247		14.3481		7.3232e-002
 316		3.1126e+001	15.4344		14.3340		7.3022e-002
 317		3.1224e+001	15.3546		14.3175		7.2873e-002
 318		3.1323e+001	15.2713		14.2996		7.2630e-002
 319		3.1422e+001	15.2081		14.2843		7.2476e-002
 320		3.1520e+001	15.1172		14.2682		7.1990e-002
 321		3.1619e+001	15.0491		14.2478		7.2050e-002
 322		3.1717e+001	14.9596		14.2346		7.1811e-002
 323		3.1816e+001	14.8804		14.2202		7.1624e-002
 324		3.1914e+001	14.8117		14.1976		7.1404e-002
 325		3.2013e+001	14.7263		14.1891		7.1288e-002
 326		3.2111e+001	14.6479		14.1645		7.0947e-002
 327		3.2209e+001	14.5715		14.1530		7.1089e-002
 328		3.2308e+001	14.4979		14.1330		7.0607e-002
 329		3.2407e+001	14.4160		14.1173		7.0424e-002
 330		3.2505e+001	14.3383		14.0990		7.0192e-002
 331		3.2603e+001	14.2577		14.0808		7.0005e-002
 332		3.2702e+001	14.1640		14.0629		6.9774e-002
 333		3.2801e+001	14.1036		14.0502		6.9441e-002
 334		3.2899e+001	14.0196		14.0294		6.9205e-002
 335		3.2998e+001	13.9356		14.0056		6.9056e-002
 336		3.3096e+001	13.8627		13.9941		6.8914e-002
 337		3.3194e+001	13.7919		13.9669		6.8648e-002
 338		3.3293e+001	13.6975		13.9524		6.8409e-002
 339		3.3392e+001	13.6232		13.9380		6.8286e-002
 340		3.3490e+001	13.5413		13.9184		6.7975e-002
 341		3.3589e+001	13.5066		13.8942		6.7598e-002
 342		3.3687e+001	13.3809		13.8840		6.7478e-002
 343		3.3785e+001	13.3157		13.8598		6.7261e-002
 344		3.3884e+001	13.2289		13.8428		6.7131e-002
 345		3.3983e+001	13.1560		13.8224		6.6839e-002
 346		3.4081e+001	13.0748		13.8054		6.6734e-002
 347		3.4179e+001	12.9977		13.7846		6.6390e-002
 348		3.4278e+001	12.9179		13.7684		6.6073e-002
 349		3.4377e+001	12.8492		13.7464		6.5859e-002
 350		3.4475e+001	12.7756		13.7221		6.5680e-002
 351		3.4574e+001	12.6812		13.7068		6.5501e-002
 352		3.4672e+001	12.6048		13.6830		6.5314e-002
 353		3.4770e+001	12.5361		13.6635		6.4873e-002
 354		3.4869e+001	12.4368		13.6482		6.4701e-002
 355		3.4968e+001	12.3591		13.6172		6.4401e-002
 356		3.5066e+001	12.2806		13.5997		6.4286e-002
 357		3.5164e+001	12.2154		13.5832		6.4005e-002
 358		3.5263e+001	12.1328		13.5607		6.3829e-002
 359		3.5361e+001	12.0647		13.5386		6.3512e-002
 360		3.5460e+001	11.9814		13.5122		6.3246e-002
 361		3.5559e+001	11.8946		13.4914		6.2925e-002
 362		3.5657e+001	11.8197		13.4718		6.2727e-002
 363		3.5755e+001	11.7489		13.4502		6.2304e-002
 364		3.5854e+001	11.6662		13.4268		6.2282e-002
 365		3.5953e+001	11.5850		13.4043		6.2035e-002
 366		3.6051e+001	11.4934		13.3818		6.1758e-002
 367		3.6150e+001	11.4371		13.3580		6.1448e-002
 368		3.6248e+001	11.3483		13.3397		6.1235e-002
 369		3.6346e+001	11.2726		13.3104		6.1063e-002
 370		3.6445e+001	11.1775		13.2895		6.0712e-002
 371		3.6544e+001	11.1234		13.2666		6.0506e-002
 372		3.6642e+001	11.0345		13.2432		6.0252e-002
 373		3.6740e+001	10.9637		13.2211		5.9814e-002
 374		3.6839e+001	10.8901		13.1973		5.9571e-002
 375		3.6938e+001	10.7908		13.1684		5.9355e-002
 376		3.7036e+001	10.7374		13.1438		5.8641e-002
 377		3.7135e+001	10.6430		13.1200		5.8966e-002
 378		3.7233e+001	10.5701		13.0949		5.8738e-002
 379		3.7331e+001	10.4812		13.0682		5.8330e-002
 380		3.7430e+001	10.4076		13.0410		5.8140e-002
 381		3.7529e+001	10.3347		13.0176		5.7635e-002
 382		3.7627e+001	10.2466		12.9938		5.7470e-002
 383		3.7725e+001	10.1772		12.9666		5.7650e-002
 384		3.7824e+001	10.0925		12.9403		5.6999e-002
 385		3.7922e+001	10.0314		12.9148		5.6652e-002
 386		3.8021e+001	9.9314		12.8812		5.6416e-002
 387		3.8120e+001	9.8543		12.8582		5.6155e-002
 388		3.8218e+001	9.7766		12.8276		5.5867e-002
 389		3.8316e+001	9.7051		12.8094		5.5422e-002
 390		3.8415e+001	9.6343		12.7784		5.5119e-002
 391		3.8514e+001	9.5489		12.7427		5.4955e-002
 392		3.8612e+001	9.4704		12.7235		5.4655e-002
 393		3.8711e+001	9.4010		12.6861		5.4368e-002
 394		3.8809e+001	9.3156		12.6657		5.4046e-002
 395		3.8907e+001	9.2358		12.6326		5.3769e-002
 396		3.9006e+001	9.1469		12.6075		5.3433e-002
 397		3.9105e+001	9.0803		12.5731		5.3108e-002
 398		3.9203e+001	8.9907		12.5489		5.2973e-002
 399		3.9301e+001	8.9213		12.5145		5.2461e-002
 400		3.9400e+001	8.8214		12.4813		5.2207e-002
 401		3.9499e+001	8.7748		12.4516		5.1897e-002
 402		3.9597e+001	8.6735		12.4193		5.1624e-002
 403		3.9696e+001	8.6082		12.3908		5.1276e-002
 404		3.9794e+001	8.5201		12.3547		5.0943e-002
 405		3.9892e+001	8.4534		12.3262		5.0652e-002
 406		3.9991e+001	8.3736		12.2935		5.0248e-002
 407		4.0090e+001	8.2889		12.2544		4.9960e-002
 408		4.0188e+001	8.1993		12.2281		4.9635e-002
 409		4.0286e+001	8.1320		12.1924		4.9396e-002
 410		4.0385e+001	8.0556		12.1601		4.9153e-002
 411		4.0483e+001	7.9807		12.1240		4.8622e-002
 412		4.0582e+001	7.9008		12.0891		4.8188e-002
 413		4.0681e+001	7.8210		12.0572		4.8005e-002
 414		4.0779e+001	7.7307		12.0165		4.7601e-002
 415		4.0877e+001	7.6676		11.9833		4.7250e-002
 416		4.0976e+001	7.5766		11.9514		4.7029e-002
 417		4.1075e+001	7.5037		11.9162		4.6719e-002
 418		4.1173e+001	7.4232		11.8758		4.6222e-002
 419		4.1272e+001	7.3309		11.8384		4.6222e-002
 420		4.1370e+001	7.2629		11.8036		4.5504e-002
 421		4.1468e+001	7.1886		11.7619		4.5033e-002
 422		4.1567e+001	7.1067		11.7224		4.4887e-002
 423		4.1666e+001	7.0275		11.6808		4.4517e-002
 424		4.1764e+001	6.9505		11.6455		4.4143e-002
 425		4.1862e+001	6.8720		11.6060		4.3586e-002
 426		4.1961e+001	6.7922		11.5732		4.3444e-002
 427		4.2060e+001	6.7186		11.5269		4.2939e-002
 428		4.2158e+001	6.6346		11.4866		4.2599e-002
 429		4.2257e+001	6.5548		11.4398		4.2240e-002
 430		4.2355e+001	6.4867		11.4033		4.1784e-002
 431		4.2453e+001	6.3944		11.3621		4.1515e-002
 432		4.2552e+001	6.3284		11.3174		4.0917e-002
 433		4.2651e+001	6.2639		11.2745		4.0681e-002
 434		4.2749e+001	6.1528		11.2261		4.0255e-002
 435		4.2847e+001	6.0848		11.1844		3.9821e-002
 436		4.2946e+001	6.0008		11.1466		3.9496e-002
 437		4.3044e+001	5.9230		11.0926		3.8932e-002
 438		4.3143e+001	5.8515		11.0429		3.8521e-002
 439		4.3242e+001	5.7689		10.9983		3.8109e-002
 440		4.3340e+001	5.6703		10.9503		3.7874e-002
 441		4.3438e+001	5.6085		10.9019		3.7354e-002
 442		4.3537e+001	5.5252		10.8555		3.6954e-002
 443		4.3636e+001	5.4419		10.8075		3.6517e-002
 444		4.3734e+001	5.3788		10.7540		3.6061e-002
 445		4.3833e+001	5.2885		10.7047		3.5414e-002
 446		4.3931e+001	5.2080		10.6499		3.5119e-002
 447		4.4029e+001	5.1580		10.6053		3.4569e-002
 448		4.4128e+001	5.0580		10.5521		3.4401e-002
 449		4.4227e+001	4.9907		10.4948		3.3933e-002
 450		4.4325e+001	4.8977		10.4451		3.3418e-002
 451		4.4423e+001	4.8192		10.3928		3.2976e-002
 452		4.4522e+001	4.7394		10.3375		3.2490e-002
 453		4.4621e+001	4.6720		10.2823		3.2064e-002
 454		4.4719e+001	4.5818		10.2232		3.1634e-002
 455		4.4818e+001	4.4936		10.1663		3.1208e-002
 456		4.4916e+001	4.4312		10.1038		3.0722e-002
 457		4.5014e+001	4.3472		10.0516		3.0240e-002
 458		4.5113e+001	4.2659		9.9827		2.9653e-002
 459		4.5212e+001	4.1868		9.9288		2.9212e-002
 460		4.5310e+001	4.1070		9.8676		2.8681e-002
 461		4.5408e+001	4.0334		9.8094		2.8333e-002
 462		4.5507e+001	3.9522		9.7392		2.7803e-002
 463		4.5605e+001	3.8702		9.6772		2.7197e-002
 464		4.5704e+001	3.7946		9.6169		2.6905e-002
 465		4.5803e+001	3.7244		9.5497		2.6311e-002
 466		4.5901e+001	3.6280		9.4771		2.5903e-002
 467		4.5999e+001	3.5565		9.4133		2.5432e-002
 468		4.6098e+001	3.4711		9.3436		2.4887e-002
 469		4.6197e+001	3.4072		9.2748		2.4273e-002
 470		4.6295e+001	3.3211		9.2047		2.3810e-002
 471		4.6394e+001	3.2489		9.1265		2.3328e-002
 472		4.6492e+001	3.1621		9.0610		2.2838e-002
 473		4.6590e+001	3.0927		8.9854		2.2329e-002
 474		4.6689e+001	3.0011		8.9068		2.1832e-002
 475		4.6788e+001	2.9268		8.8329		2.1421e-002
 476		4.6886e+001	2.8435		8.7538		2.0614e-002
 477		4.6984e+001	2.7748		8.6710		2.0143e-002
 478		4.7083e+001	2.6970		8.5928		1.9698e-002
 479		4.7182e+001	2.6262		8.5091		1.9111e-002
 480		4.7280e+001	2.5373		8.4326		1.8531e-002
 481		4.7379e+001	2.4651		8.3378		1.7914e-002
 482		4.7477e+001	2.3909		8.2583		1.6931e-002
 483		4.7575e+001	2.3041		8.1644		1.6748e-002
 484		4.7674e+001	2.2291		8.0824		1.6288e-002
 485		4.7773e+001	2.1562		7.9855		1.5731e-002
 486		4.7871e+001	2.0646		7.8933		1.5178e-002
 487		4.7969e+001	1.9896		7.8011		1.4580e-002
 488		4.8068e+001	1.9119		7.7055		1.4150e-002
 489		4.8166e+001	1.8327		7.5967		1.3189e-002
 490		4.8265e+001	1.7508		7.5020		1.2853e-002
 491		4.8364e+001	1.6772		7.3983		1.2299e-002
 492		4.8462e+001	1.6009		7.2959		1.1854e-002
 493		4.8560e+001	1.5155		7.1926		1.0920e-002
 494		4.8659e+001	1.4454		7.0838		1.0658e-002
 495		4.8758e+001	1.3572		6.9691		9.9890e-003
 496		4.8856e+001	1.2857		6.8531		9.3797e-003
 497		4.8955e+001	1.2135		6.7401		8.9273e-003
 498		4.9053e+001	1.1239		6.6190		8.2544e-003
 499		4.9151e+001	1.0483		6.4962		7.6488e-003
 500		4.9250e+001	0.9698		6.3746		7.1179e-003
 501		4.9349e+001	0.9018		6.2442		6.4973e-003
 502		4.9447e+001	0.8185		6.1154		5.9216e-003
 503		4.9545e+001	0.7303		5.9769		5.3048e-003
 504		4.9644e+001	0.6678		5.8447		4.2693e-003
 505		4.9743e+001	0.5797		5.6986		4.0599e-003
 506		4.9841e+001	0.4950		5.5579		3.5216e-003
 507		4.9940e+001	0.4221		5.4134		2.9870e-003
 508		5.0038e+001	0.3284		5.2562		2.4225e-003
 509		5.0136e+001	0.2631		5.0964		1.6972e-003
 510		5.0235e+001	0.1763		4.9405		1.1963e-003
 511		5.0334e+001	0.0986		4.7777		5.5702e-004
 512		5.0432e+001	0.0347		4.6163		1.1589e-004
 513		5.0531e+001	-0.0375		4.4374		-5.6824e-004
 514		5.0629e+001	-0.1333		4.2576		-9.8320e-004
 515		5.0727e+001	-0.2103		4.0779		-1.6225e-003
 516		5.0826e+001	-0.2888		3.8875		-2.1944e-003
 517		5.0925e+001	-0.3645		3.7009		-2.7141e-003
 518		5.1023e+001	-0.4339		3.5025		-3.2487e-003
 519		5.1121e+001	-0.5089		3.3032		-3.8506e-003
 520		5.1220e+001	-0.5984		3.0963		-4.2730e-003
 521		5.1319e+001	-0.6699		2.8889		-4.7814e-003
 522		5.1417e+001	-0.7428		2.6777		-5.2599e-003
 523		5.1516e+001	-0.8296		2.4695		-5.6786e-003
 524		5.1614e+001	-0.9157		2.2519		-6.2244e-003
 525		5.1712e+001	-0.9906		2.0267		-6.7142e-003
 526		5.1811e+001	-1.0844		1.8002		-6.7927e-003
 527		5.1910e+001	-1.1413		1.5725		-7.3833e-003
 528		5.2008e+001	-1.2315		1.3421		-7.7908e-003
 529		5.2106e+001	-1.2940		1.0936		-8.1161e-003
 530		5.2205e+001	-1.3683		0.8463		-8.4039e-003
 531		5.2304e+001	-1.4585		0.6002		-8.8002e-003
 532		5.2402e+001	-1.5335		0.3440		-9.0133e-003
 533		5.2501e+001	-1.6321		0.0792		-9.3049e-003
 534		5.2599e+001	-1.6973		-0.1812		-9.5703e-003
 535		5.2697e+001	-1.7682		-0.4426		-9.7572e-003
 536		5.2796e+001	-1.8584		-0.7103		-9.8806e-003
 537		5.2895e+001	-1.9237		-0.9810		-9.9591e-003
 538		5.2993e+001	-2.0160		-1.2491		-1.0079e-002
 539		5.3092e+001	-2.0833		-1.5155		-1.0314e-002
 540		5.3190e+001	-2.1701		-1.7815		-1.0396e-002
 541		5.3288e+001	-2.2576		-2.0407		-1.0228e-002
 542		5.3387e+001	-2.3263		-2.2961		-1.0337e-002
 543		5.3486e+001	-2.4075		-2.5553		-1.0273e-002
 544		5.3584e+001	-2.4797		-2.8035		-1.0187e-002
 545		5.3682e+001	-2.5394		-3.0368		-1.0053e-002
 546		5.3781e+001	-2.6380		-3.2764		-9.9479e-003
 547		5.3880e+001	-2.7130		-3.5072		-9.8021e-003
 548		5.3978e+001	-2.7852		-3.7328		-9.5441e-003
 549		5.4077e+001	-2.8581		-3.9555		-9.6413e-003
 550		5.4175e+001	-2.9532		-4.1633		-9.0208e-003
 551		5.4273e+001	-3.0365		-4.3698		-8.7740e-003
 552		5.4372e+001	-3.1059		-4.5733		-8.3852e-003
 553		5.4471e+001	-3.1837		-4.7616		-8.1086e-003
 554		5.4569e+001	-3.2524		-4.9524		-7.7534e-003
 555		5.4667e+001	-3.3461		-5.1372		-7.3647e-003
 556		5.4766e+001	-3.4204		-5.3204		-6.7254e-003
 557		5.4865e+001	-3.5002		-5.4963		-6.5048e-003
 558		5.4963e+001	-3.5801		-5.6616		-6.1160e-003
 559		5.5062e+001	-3.6543		-5.8277		-5.5216e-003
 560		5.5160e+001	-3.7321		-5.9892		-5.1515e-003
 561		5.5258e+001	-3.8216		-6.1435		-4.5721e-003
 562		5.5357e+001	-3.8959		-6.2922		-4.1870e-003
 563		5.5456e+001	-3.9778		-6.4354		-3.4917e-003
 564		5.5554e+001	-4.0598		-6.5803		-3.3160e-003
 565		5.5653e+001	-4.1333		-6.7192		-2.4374e-003
 566		5.5751e+001	-4.2062		-6.8544		-1.9589e-003
 567		5.5849e+001	-4.2736		-6.9904		-1.2337e-003
 568		5.5948e+001	-4.3583		-7.1161		-7.5890e-004
 569		5.6047e+001	-4.4339		-7.2406		-1.4206e-004
 570		5.6145e+001	-4.5256		-7.3634		5.9067e-004
 571		5.6243e+001	-4.5999		-7.4799		9.8694e-004
 572		5.6342e+001	-4.6686		-7.5967		1.1365e-003
 573		5.6441e+001	-4.7477		-7.7140		2.2655e-003
 574		5.6539e+001	-4.8400		-7.8249		2.9346e-003
 575		5.6638e+001	-4.9143		-7.9282		3.5328e-003
 576		5.6736e+001	-4.9976		-8.0340		4.2244e-003
 577		5.6834e+001	-5.0532		-8.1368		4.8562e-003
 578		5.6933e+001	-5.1483		-8.2392		5.3870e-003
 579		5.7032e+001	-5.2191		-8.3408		6.0861e-003
 580		5.7130e+001	-5.2955		-8.4326		6.0637e-003
 581		5.7228e+001	-5.3704		-8.5286		7.3497e-003
 582		5.7327e+001	-5.4718		-8.6302		8.0002e-003
 583		5.7426e+001	-5.5433		-8.7207		8.7441e-003
 584		5.7524e+001	-5.6238		-8.8112		9.3572e-003
 585		5.7623e+001	-5.6925		-8.9017		9.8582e-003
 586		5.7721e+001	-5.7772		-8.9901		1.0505e-002
 587		5.7819e+001	-5.8522		-9.0721		1.1159e-002
 588		5.7918e+001	-5.9577		-9.1562		1.1888e-002
 589		5.8017e+001	-6.0154		-9.2365		1.2539e-002
 590		5.8115e+001	-6.0987		-9.3173		1.3200e-002
 591		5.8214e+001	-6.1729		-9.3950		1.3832e-002
 592		5.8312e+001	-6.2521		-9.4728		1.4468e-002
 593		5.8410e+001	-6.3291		-9.5497		1.5058e-002
 594		5.8509e+001	-6.4222		-9.6283		1.5724e-002
 595		5.8608e+001	-6.4798		-9.6959		1.6288e-002
 596		5.8706e+001	-6.5659		-9.7681		1.6924e-002
 597		5.8804e+001	-6.6415		-9.8391		1.7541e-002
 598		5.8903e+001	-6.7214		-9.9126		1.8258e-002
 599		5.9002e+001	-6.8005		-9.9806		1.8827e-002
 600		5.9100e+001	-6.8845		-10.0439		1.9556e-002
 601		5.9199e+001	-6.9574		-10.1102		2.0068e-002
 602		5.9297e+001	-7.0407		-10.1752		2.0729e-002
 603		5.9395e+001	-7.0976		-10.2449		2.1058e-002
 604		5.9494e+001	-7.1934		-10.3010		2.1885e-002
 605		5.9593e+001	-7.2670		-10.3652		2.2468e-002
 606		5.9691e+001	-7.3434		-10.4276		2.3137e-002
 607		5.9789e+001	-7.4211		-10.4833		2.3735e-002
 608		5.9888e+001	-7.5037		-10.5475		2.4337e-002
 609		5.9986e+001	-7.5891		-10.6065		2.4879e-002
 610		6.0085e+001	-7.6655		-10.6622		2.5339e-002
 611		6.0184e+001	-7.7620		-10.7145		2.6513e-002
 612		6.0282e+001	-7.8252		-10.7761		2.6602e-002
 613		6.0380e+001	-7.9008		-10.8305		2.7189e-002
 614		6.0479e+001	-7.9841		-10.8857		2.7795e-002
 615		6.0578e+001	-8.0681		-10.9392		2.8348e-002
 616		6.0676e+001	-8.1410		-10.9911		2.8935e-002
 617		6.0775e+001	-8.2070		-11.0400		2.9365e-002
 618		6.0873e+001	-8.3021		-11.0943		2.9896e-002
 619		6.0971e+001	-8.3722		-11.1407		3.0419e-002
 620		6.1070e+001	-8.4576		-11.2010		3.1137e-002
 621		6.1169e+001	-8.5346		-11.2448		3.1634e-002
 622		6.1267e+001	-8.6221		-11.2873		3.2195e-002
 623		6.1365e+001	-8.6832		-11.3417		3.2670e-002
 624		6.1464e+001	-8.7665		-11.3854		3.3160e-002
 625		6.1563e+001	-8.8408		-11.4330		3.3672e-002
 626		6.1661e+001	-8.9477		-11.4802		3.4139e-002
 627		6.1760e+001	-8.9970		-11.5235		3.4808e-002
 628		6.1858e+001	-9.0935		-11.5741		3.5313e-002
 629		6.1956e+001	-9.1587		-11.6128		3.5885e-002
 630		6.2055e+001	-9.2372		-11.6612		3.6296e-002
 631		6.2154e+001	-9.3205		-11.7020		3.6756e-002
 632		6.2252e+001	-9.3969		-11.7432		3.7373e-002
 633		6.2350e+001	-9.4642		-11.7929		3.7866e-002
 634		6.2449e+001	-9.5197		-11.8333		3.7915e-002
 635		6.2547e+001	-9.6343		-11.8788		3.8719e-002
 636		6.2646e+001	-9.7093		-11.9174		3.9231e-002
 637		6.2745e+001	-9.7856		-11.9561		3.9747e-002
 638		6.2843e+001	-9.8564		-11.9944		4.0352e-002
 639		6.2941e+001	-9.9481		-12.0360		4.0663e-002
 640		6.3040e+001	-10.0265		-12.0776		4.1223e-002
 641		6.3139e+001	-10.0959		-12.1142		4.1635e-002
 642		6.3237e+001	-10.1667		-12.1469		4.1975e-002
 643		6.3336e+001	-10.2632		-12.1907		4.2532e-002
 644		6.3434e+001	-10.3382		-12.2306		4.2928e-002
 645		6.3532e+001	-10.4229		-12.2612		4.3481e-002
 646		6.3631e+001	-10.4951		-12.3029		4.3975e-002
 647		6.3730e+001	-10.5638		-12.3351		4.4330e-002
 648		6.3828e+001	-10.6478		-12.3772		4.4644e-002
 649		6.3926e+001	-10.7249		-12.4146		4.5463e-002
 650		6.4025e+001	-10.8137		-12.4482		4.5594e-002
 651		6.4124e+001	-10.8811		-12.4852		4.6233e-002
 652		6.4222e+001	-10.9644		-12.5128		4.6539e-002
 653		6.4320e+001	-11.0352		-12.5451		4.6951e-002
 654		6.4419e+001	-11.1192		-12.5816		4.7395e-002
 655		6.4517e+001	-11.2025		-12.6165		4.7769e-002
 656		6.4616e+001	-11.2754		-12.6517		4.8184e-002
 657		6.4715e+001	-11.3455		-12.6849		4.8480e-002
 658		6.4813e+001	-11.4371		-12.7184		4.8992e-002
 659		6.4912e+001	-11.5100		-12.7507		4.9463e-002
 660		6.5010e+001	-11.5892		-12.7792		4.9829e-002
 661		6.5109e+001	-11.6614		-12.8119		5.0053e-002
 662		6.5207e+001	-11.7357		-12.8429		5.0528e-002
 663		6.5305e+001	-11.8099		-12.8782		5.0809e-002
 664		6.5404e+001	-11.9030		-12.9046		5.0854e-002
 665		6.5502e+001	-11.9724		-12.9352		5.1766e-002
 666		6.5601e+001	-12.0467		-12.9636		5.2035e-002
 667		6.5700e+001	-12.1321		-13.0006		5.2536e-002
 668		6.5798e+001	-12.2174		-13.0286		5.2887e-002
 669		6.5897e+001	-12.2910		-13.0571		5.3205e-002
 670		6.5995e+001	-12.3709		-13.0830		5.3515e-002
 671		6.6094e+001	-12.4438		-13.1153		5.3971e-002
 672		6.6192e+001	-12.5243		-13.1404		5.4472e-002
 673		6.6290e+001	-12.5993		-13.1676		5.4712e-002
 674		6.6389e+001	-12.6840		-13.1978		5.5198e-002
 675		6.6487e+001	-12.7520		-13.2228		5.5448e-002
 676		6.6586e+001	-12.8513		-13.2530		5.5736e-002
 677		6.6685e+001	-12.9228		-13.2806		5.6110e-002
 678		6.6783e+001	-12.9964		-13.3078		5.6566e-002
 679		6.6882e+001	-13.0810		-13.3371		5.7328e-002
 680		6.6980e+001	-13.1560		-13.3592		5.7366e-002
 681		6.7079e+001	-13.2289		-13.3877		5.7493e-002
 682		6.7177e+001	-13.3074		-13.4158		5.7938e-002
 683		6.7275e+001	-13.3872		-13.4374		5.8267e-002
 684		6.7374e+001	-13.4656		-13.4663		5.8659e-002
 685		6.7472e+001	-13.5496		-13.4927		5.8996e-002
 686		6.7571e+001	-13.6149		-13.5131		5.9388e-002
 687		6.7669e+001	-13.7197		-13.5415		5.9822e-002
 688		6.7768e+001	-13.7760		-13.5692		5.9927e-002
 689		6.7867e+001	-13.8502		-13.5904		6.0177e-002
 690		6.7965e+001	-13.9328		-13.6167		6.0652e-002
 691		6.8064e+001	-14.0141		-13.6376		6.1011e-002
 692		6.8162e+001	-14.0981		-13.6703		6.1201e-002
 693		6.8260e+001	-14.1654		-13.6864		6.1553e-002
 694		6.8359e+001	-14.2418		-13.7145		6.1583e-002
 695		6.8457e+001	-14.3202		-13.7281		6.2162e-002
 696		6.8556e+001	-14.4105		-13.7561		6.2547e-002
 697		6.8654e+001	-14.4799		-13.7846		6.2876e-002
 698		6.8753e+001	-14.5722		-13.8037		6.3127e-002
 699		6.8852e+001	-14.6437		-13.8250		6.3497e-002
 700		6.8950e+001	-14.7305		-13.8449		6.3815e-002
 701		6.9049e+001	-14.8041		-13.8730		6.4200e-002
 702		6.9147e+001	-14.8992		-13.8900		6.4723e-002
 703		6.9246e+001	-14.9617		-13.9112		6.4678e-002
 704		6.9344e+001	-15.0429		-13.9354		6.5056e-002
 705		6.9442e+001	-15.1061		-13.9541		6.5299e-002
 706		6.9541e+001	-15.1901		-13.9792		6.5624e-002
 707		6.9639e+001	-15.2748		-14.0034		6.5818e-002
 708		6.9738e+001	-15.3282		-14.0204		6.6170e-002
 709		6.9837e+001	-15.4074		-14.0468		6.6973e-002
 710		6.9935e+001	-15.5066		-14.0723		6.6783e-002
 711		7.0034e+001	-15.5809		-14.0863		6.7082e-002
 712		7.0132e+001	-15.6593		-14.1071		6.7306e-002
 713		7.0231e+001	-15.7413		-14.1288		6.7650e-002
 714		7.0329e+001	-15.8155		-14.1513		6.7886e-002
 715		7.0427e+001	-15.9009		-14.1670		6.8181e-002
 716		7.0526e+001	-15.9752		-14.1925		6.8581e-002
 717		7.0624e+001	-16.0703		-14.2087		6.8903e-002
 718		7.0723e+001	-16.1391		-14.2325		6.9007e-002
 719		7.0822e+001	-16.2064		-14.2452		6.9261e-002
 720		7.0920e+001	-16.2925		-14.2686		6.9628e-002
 721		7.1019e+001	-16.3619		-14.2873		6.9781e-002
 722		7.1117e+001	-16.4369		-14.3098		7.0222e-002
 723		7.1216e+001	-16.5132		-14.3251		7.0383e-002
 724		7.1314e+001	-16.5979		-14.3472		7.0596e-002
 725		7.1412e+001	-16.6750		-14.3595		7.0891e-002
 726		7.1511e+001	-16.7548		-14.3812		7.1276e-002
 727		7.1609e+001	-16.8367		-14.4037		7.1508e-002
 728		7.1708e+001	-16.9228		-14.4194		7.1792e-002
 729		7.1807e+001	-16.9950		-14.4381		7.2162e-002
 730		7.1905e+001	-17.0853		-14.4598		7.2334e-002
 731		7.2004e+001	-17.1734		-14.4755		7.2880e-002
 732		7.2102e+001	-17.2310		-14.4913		7.2731e-002
 733		7.2201e+001	-17.3137		-14.5095		7.3149e-002
 734		7.2299e+001	-17.3935		-14.5282		7.3460e-002
 735		7.2397e+001	-17.4733		-14.5499		7.3770e-002
 736		7.2496e+001	-17.5511		-14.5682		7.3983e-002
 737		7.2594e+001	-17.6136		-14.5830		7.4260e-002
 738		7.2693e+001	-17.7059		-14.5971		7.4065e-002
 739		7.2791e+001	-17.7927		-14.6183		7.4716e-002
 740		7.2890e+001	-17.8614		-14.6362		7.5007e-002
 741		7.2989e+001	-17.9398		-14.6506		7.5340e-002
 742		7.3087e+001	-18.0301		-14.6655		7.5662e-002
 743		7.3186e+001	-18.1030		-14.6872		7.5841e-002
 744		7.3284e+001	-18.1856		-14.6982		7.6136e-002
 745		7.3382e+001	-18.2495		-14.7152		7.6245e-002
 746		7.3481e+001	-18.3335		-14.7309		7.6559e-002
 747		7.3579e+001	-18.4168		-14.7522		7.6880e-002
 748		7.3678e+001	-18.5035		-14.7675		7.7157e-002
 749		7.3776e+001	-18.5653		-14.7815		7.7400e-002
 750		7.3875e+001	-18.6424		-14.7968		7.7677e-002
 751		7.3974e+001	-18.7278		-14.8125		7.7785e-002
 752		7.4072e+001	-18.7896		-14.8236		7.8073e-002
 753		7.4171e+001	-18.8742		-14.8499		7.8237e-002
 754		7.4269e+001	-18.9576		-14.8601		7.8660e-002
 755		7.4368e+001	-19.0429		-14.8754		7.8918e-002
 756		7.4466e+001	-19.1235		-14.8881		7.9097e-002
 757		7.4564e+001	-19.1957		-14.9068		7.9250e-002
 758		7.4663e+001	-19.2804		-14.9187		7.9621e-002
 759		7.4761e+001	-19.3546		-14.9332		7.9957e-002
 760		7.4860e+001	-19.4400		-14.9506		8.0035e-002
 761		7.4959e+001	-19.5081		-14.9668		8.0421e-002
 762		7.5057e+001	-19.5858		-14.9821		8.0630e-002
 763		7.5156e+001	-19.6656		-14.9965		8.0832e-002
 764		7.5254e+001	-19.7017		-15.0029		8.0948e-002
 765		7.5353e+001	-19.7080		-15.0118		8.1258e-002
 766		7.5451e+001	-19.7080		-15.0139		8.1340e-002
 767		7.5549e+001	-19.6983		-15.0067		8.1856e-002
 768		7.5648e+001	-19.6608		-15.0054		8.1931e-002
 769		7.5746e+001	-19.5928		-15.0067		8.2047e-002
 770		7.5845e+001	-19.5761		-14.9999		8.2305e-002
 771		7.5944e+001	-19.5240		-14.9957		8.2398e-002
 772		7.6042e+001	-19.4699		-14.9850		8.2379e-002
 773		7.6141e+001	-19.4005		-14.9795		8.2540e-002
 774		7.6239e+001	-19.3241		-14.9714		8.1979e-002
 775		7.6338e+001	-19.2818		-14.9583		8.2821e-002
 776		7.6436e+001	-19.2054		-14.9570		8.2899e-002
 777		7.6534e+001	-19.1269		-14.9442		8.2880e-002
 778		7.6633e+001	-19.0707		-14.9353		8.2922e-002
 779		7.6731e+001	-18.9916		-14.9306		8.2963e-002
 780		7.6830e+001	-18.9298		-14.9124		8.3026e-002
 781		7.6929e+001	-18.8493		-14.9077		8.3146e-002
 782		7.7027e+001	-18.7639		-14.8958		8.2959e-002
 783		7.7126e+001	-18.6931		-14.8758		8.2996e-002
 784		7.7224e+001	-18.6181		-14.8690		8.2978e-002
 785		7.7323e+001	-18.5382		-14.8597		8.2914e-002
 786		7.7421e+001	-18.4605		-14.8495		8.2888e-002
 787		7.7519e+001	-18.3834		-14.8418		8.2750e-002
 788		7.7618e+001	-18.3105		-14.8312		8.2671e-002
 789		7.7716e+001	-18.2217		-14.8121		8.1976e-002
 790		7.7815e+001	-18.1550		-14.8006		8.2540e-002
 791		7.7913e+001	-18.0745		-14.7934		8.2443e-002
 792		7.8012e+001	-18.0093		-14.7798		8.2510e-002
 793		7.8111e+001	-17.9148		-14.7615		8.2454e-002
 794		7.8209e+001	-17.8385		-14.7479		8.2252e-002
 795		7.8308e+001	-17.7670		-14.7390		8.2050e-002
 796		7.8406e+001	-17.6795		-14.7233		8.1953e-002
 797		7.8504e+001	-17.6045		-14.7152		8.1890e-002
 798		7.8603e+001	-17.5337		-14.6995		8.1740e-002
 799		7.8701e+001	-17.4525		-14.6872		8.1594e-002
 800		7.8800e+001	-17.3609		-14.6770		8.1550e-002
 801		7.8898e+001	-17.2748		-14.6612		8.1464e-002
 802		7.8997e+001	-17.2206		-14.6481		8.1172e-002
 803		7.9096e+001	-17.1283		-14.6362		8.1004e-002
 804		7.9194e+001	-17.0679		-14.6149		8.1269e-002
 805		7.9293e+001	-16.9797		-14.6085		8.0809e-002
 806		7.9391e+001	-16.8985		-14.5932		8.0637e-002
 807		7.9490e+001	-16.8201		-14.5779		8.0499e-002
 808		7.9588e+001	-16.7402		-14.5618		8.0372e-002
 809		7.9686e+001	-16.6583		-14.5529		8.0073e-002
 810		7.9785e+001	-16.5729		-14.5312		7.9916e-002
 811		7.9883e+001	-16.5021		-14.5231		8.0002e-002
 812		7.9982e+001	-16.4299		-14.5112		7.9609e-002
 813		8.0081e+001	-16.3431		-14.4908		7.9508e-002
 814		8.0179e+001	-16.2605		-14.4751		7.9310e-002
 815		8.0278e+001	-16.1835		-14.4636		7.9116e-002
 816		8.0376e+001	-16.1113		-14.4530		7.8940e-002
 817		8.0475e+001	-16.0231		-14.4369		7.8697e-002
 818		8.0573e+001	-15.9683		-14.4199		7.8465e-002
 819		8.0671e+001	-15.8732		-14.4037		7.8406e-002
 820		8.0770e+001	-15.8051		-14.3863		7.8181e-002
 821		8.0868e+001	-15.7274		-14.3748		7.7976e-002
 822		8.0967e+001	-15.6420		-14.3566		7.7807e-002
 823		8.1066e+001	-15.5594		-14.3425		7.7553e-002
 824		8.1164e+001	-15.4907		-14.3234		7.7396e-002
 825		8.1263e+001	-15.4025		-14.3077		7.7291e-002
 826		8.1361e+001	-15.3282		-14.2983		7.7019e-002
 827		8.1460e+001	-15.2477		-14.2741		7.6768e-002
 828		8.1558e+001	-15.1720		-14.2626		7.6626e-002
 829		8.1656e+001	-15.0852		-14.2473		7.6473e-002
 830		8.1755e+001	-15.0151		-14.2303		7.6174e-002
 831		8.1853e+001	-14.9249		-14.2176		7.6005e-002
 832		8.1952e+001	-14.8575		-14.1998		7.5647e-002
 833		8.2051e+001	-14.7846		-14.1862		7.5762e-002
 834		8.2149e+001	-14.7041		-14.1675		7.5239e-002
 835		8.2248e+001	-14.6153		-14.1454		7.5168e-002
 836		8.2346e+001	-14.5410		-14.1262		7.4921e-002
 837		8.2445e+001	-14.4598		-14.1131		7.4686e-002
 838		8.2543e+001	-14.3862		-14.0939		7.4405e-002
 839		8.2641e+001	-14.3119		-14.0757		7.4140e-002
 840		8.2740e+001	-14.1987		-14.0591		7.3706e-002
 841		8.2838e+001	-14.1480		-14.0425		7.3673e-002
 842		8.2937e+001	-14.0890		-14.0204		7.3422e-002
 843		8.3035e+001	-13.9932		-14.0115		7.3284e-002
 844		8.3134e+001	-13.9065		-13.9932		7.3090e-002
 845		8.3233e+001	-13.8259		-13.9750		7.2820e-002
 846		8.3331e+001	-13.7544		-13.9499		7.2607e-002
 847		8.3430e+001	-13.6975		-13.9320		7.1856e-002
 848		8.3528e+001	-13.6066		-13.9180		7.2103e-002
 849		8.3626e+001	-13.5240		-13.8993		7.1912e-002
 850		8.3725e+001	-13.4330		-13.8777		7.1602e-002
 851		8.3823e+001	-13.3594		-13.8585		7.1475e-002
 852		8.3922e+001	-13.2851		-13.8424		7.1183e-002
 853		8.4020e+001	-13.1949		-13.8216		7.0865e-002
 854		8.4119e+001	-13.1324		-13.8067		7.0813e-002
 855		8.4218e+001	-13.0540		-13.7803		7.0189e-002
 856		8.4316e+001	-12.9748		-13.7633		7.0174e-002
 857		8.4415e+001	-12.8874		-13.7425		6.9979e-002
 858		8.4513e+001	-12.8221		-13.7204		6.9755e-002
 859		8.4612e+001	-12.7256		-13.7085		6.9396e-002
 860		8.4710e+001	-12.6624		-13.6852		6.9157e-002
 861		8.4808e+001	-12.5944		-13.6656		6.8499e-002
 862		8.4907e+001	-12.5000		-13.6427		6.8734e-002
 863		8.5005e+001	-12.4208		-13.6231		6.8424e-002
 864		8.5104e+001	-12.3410		-13.6023		6.8151e-002
 865		8.5203e+001	-12.2633		-13.5806		6.7871e-002
 866		8.5301e+001	-12.1744		-13.5547		6.7568e-002
 867		8.5400e+001	-12.1119		-13.5313		6.7280e-002
 868		8.5498e+001	-12.0231		-13.5118		6.6757e-002
 869		8.5597e+001	-11.9453		-13.4965		6.6888e-002
 870		8.5695e+001	-11.8773		-13.4723		6.6615e-002
 871		8.5793e+001	-11.7836		-13.4497		6.6390e-002
 872		8.5892e+001	-11.7030		-13.4285		6.5848e-002
 873		8.5990e+001	-11.6288		-13.4056		6.5673e-002
 874		8.6089e+001	-11.5607		-13.3830		6.5415e-002
 875		8.6188e+001	-11.4864		-13.3580		6.5216e-002
 876		8.6286e+001	-11.3934		-13.3388		6.4958e-002
 877		8.6385e+001	-11.3295		-13.3159		6.4663e-002
 878		8.6483e+001	-11.2324		-13.2900		6.4431e-002
 879		8.6582e+001	-11.1727		-13.2675		6.4016e-002
 880		8.6680e+001	-11.0845		-13.2415		6.3807e-002
 881		8.6778e+001	-11.0012		-13.2169		6.3497e-002
 882		8.6877e+001	-10.9359		-13.1978		6.3366e-002
 883		8.6975e+001	-10.8707		-13.1718		6.3157e-002
 884		8.7074e+001	-10.7783		-13.1442		6.2600e-002
 885		8.7172e+001	-10.6909		-13.1238		6.2394e-002
 886		8.7271e+001	-10.6208		-13.0962		6.2016e-002
 887		8.7370e+001	-10.5395		-13.0703		6.1747e-002
 888		8.7468e+001	-10.4521		-13.0478		6.1396e-002
 889		8.7567e+001	-10.3757		-13.0206		6.1145e-002
 890		8.7665e+001	-10.2917		-12.9951		6.0663e-002
 891		8.7763e+001	-10.2195		-12.9704		6.0547e-002
 892		8.7862e+001	-10.1452		-12.9394		6.0237e-002
 893		8.7960e+001	-10.0647		-12.9114		5.9949e-002
 894		8.8059e+001	-9.9849		-12.8850		5.9676e-002
 895		8.8157e+001	-9.9085		-12.8591		5.9370e-002
 896		8.8256e+001	-9.8294		-12.8357		5.9115e-002
 897		8.8355e+001	-9.7454		-12.8060		5.8596e-002
 898		8.8453e+001	-9.6732		-12.7835		5.8319e-002
 899		8.8552e+001	-9.5843		-12.7499		5.8125e-002
 900		8.8650e+001	-9.5079		-12.7248		5.7811e-002
 901		8.8749e+001	-9.4343		-12.6929		5.7437e-002
 902		8.8847e+001	-9.3566		-12.6619		5.7115e-002
 903		8.8945e+001	-9.2858		-12.6381		5.6906e-002
 904		8.9044e+001	-9.1962		-12.6058		5.6588e-002
 905		8.9142e+001	-9.1046		-12.5799		5.6046e-002
 906		8.9241e+001	-9.0518		-12.5455		5.5826e-002
 907		8.9340e+001	-8.9685		-12.5132		5.5583e-002
 908		8.9438e+001	-8.8894		-12.4801		5.5168e-002
 909		8.9537e+001	-8.8089		-12.4597		5.4850e-002
 910		8.9635e+001	-8.7276		-12.4248		5.4569e-002
 911		8.9734e+001	-8.6513		-12.3900		5.4151e-002
 912		8.9832e+001	-8.5943		-12.3581		5.3695e-002
 913		8.9930e+001	-8.4881		-12.3267		5.3549e-002
 914		9.0029e+001	-8.4222		-12.2935		5.3059e-002
 915		9.0127e+001	-8.3361		-12.2595		5.2910e-002
 916		9.0226e+001	-8.2507		-12.2327		5.2409e-002
 917		9.0325e+001	-8.1750		-12.1941		5.2169e-002
 918		9.0423e+001	-8.1119		-12.1652		5.1668e-002
 919		9.0522e+001	-8.0119		-12.1312		5.1747e-002
 920		9.0620e+001	-7.9328		-12.0912		5.1063e-002
 921		9.0719e+001	-7.8647		-12.0581		5.0693e-002
 922		9.0817e+001	-7.7793		-12.0232		5.0364e-002
 923		9.0915e+001	-7.7071		-11.9893		4.9926e-002
 924		9.1014e+001	-7.6273		-11.9497		4.9556e-002
 925		9.1112e+001	-7.5440		-11.9187		4.9093e-002
 926		9.1211e+001	-7.4635		-11.8800		4.8614e-002
 927		9.1310e+001	-7.3913		-11.8397		4.8495e-002
 928		9.1408e+001	-7.3121		-11.8065		4.8136e-002
 929		9.1507e+001	-7.2254		-11.7657		4.7721e-002
 930		9.1605e+001	-7.1504		-11.7330		4.7332e-002
 931		9.1704e+001	-7.0733		-11.6897		4.6861e-002
 932		9.1802e+001	-6.9997		-11.6506		4.6592e-002
 933		9.1900e+001	-6.9282		-11.6098		4.6435e-002
 934		9.1999e+001	-6.8415		-11.5677		4.5769e-002
 935		9.2097e+001	-6.7602		-11.5320		4.5504e-002
 936		9.2196e+001	-6.6908		-11.4908		4.5048e-002
 937		9.2294e+001	-6.5964		-11.4509		4.4622e-002
 938		9.2393e+001	-6.5263		-11.4041		4.4240e-002
 939		9.2492e+001	-6.4347		-11.3659		4.3825e-002
 940		9.2590e+001	-6.3868		-11.3183		4.3859e-002
 941		9.2689e+001	-6.2847		-11.2762		4.3033e-002
 942		9.2787e+001	-6.2035		-11.2312		4.2607e-002
 943		9.2885e+001	-6.1264		-11.1917		4.2195e-002
 944		9.2984e+001	-6.0514		-11.1462		4.1750e-002
 945		9.3082e+001	-5.9619		-11.0939		4.1279e-002
 946		9.3181e+001	-5.8932		-11.0472		4.0913e-002
 947		9.3279e+001	-5.8217		-11.0051		4.0950e-002
 948		9.3378e+001	-5.7342		-10.9550		4.0061e-002
 949		9.3477e+001	-5.6557		-10.9070		3.9743e-002
 950		9.3575e+001	-5.5731		-10.8572		3.9156e-002
 951		9.3674e+001	-5.4940		-10.8062		3.8853e-002
 952		9.3772e+001	-5.4128		-10.7591		3.8319e-002
 953		9.3871e+001	-5.3239		-10.7068		3.7859e-002
 954		9.3969e+001	-5.2795		-10.6579		3.7840e-002
 955		9.4067e+001	-5.1795		-10.6006		3.6962e-002
 956		9.4166e+001	-5.0983		-10.5551		3.6431e-002
 957		9.4264e+001	-5.0358		-10.5020		3.6094e-002
 958		9.4363e+001	-4.9477		-10.4501		3.5608e-002
 959		9.4462e+001	-4.8657		-10.3907		3.5111e-002
 960		9.4560e+001	-4.7838		-10.3350		3.4621e-002
 961		9.4659e+001	-4.7019		-10.2827		3.4184e-002
 962		9.4757e+001	-4.6311		-10.2241		3.3773e-002
 963		9.4856e+001	-4.5499		-10.1663		3.3298e-002
 964		9.4954e+001	-4.4888		-10.1102		3.2876e-002
 965		9.5052e+001	-4.3958		-10.0469		3.2337e-002
 966		9.5151e+001	-4.3236		-9.9891		3.1918e-002
 967		9.5249e+001	-4.2278		-9.9305		3.1414e-002
 968		9.5348e+001	-4.1576		-9.8663		3.1096e-002
 969		9.5447e+001	-4.0778		-9.8072		3.0378e-002
 970		9.5545e+001	-4.0014		-9.7435		2.9978e-002
 971		9.5644e+001	-3.9181		-9.6802		2.9462e-002
 972		9.5742e+001	-3.8487		-9.6130		2.8928e-002
 973		9.5841e+001	-3.7703		-9.5463		2.8356e-002
 974		9.5939e+001	-3.6877		-9.4834		2.7814e-002
 975		9.6037e+001	-3.6231		-9.4133		2.7384e-002
 976		9.6136e+001	-3.5328		-9.3428		2.6797e-002
 977		9.6234e+001	-3.4523		-9.2744		2.6442e-002
 978		9.6333e+001	-3.3725		-9.2051		2.5881e-002
 979		9.6432e+001	-3.3017		-9.1269		2.5384e-002
 980		9.6530e+001	-3.2211		-9.0581		2.4853e-002
 981		9.6629e+001	-3.1420		-8.9799		2.4191e-002
 982		9.6727e+001	-3.0809		-8.9098		2.3769e-002
 983		9.6826e+001	-2.9830		-8.8278		2.3148e-002
 984		9.6924e+001	-2.9039		-8.7491		2.2602e-002
 985		9.7022e+001	-2.8185		-8.6710		2.2094e-002
 986		9.7121e+001	-2.7546		-8.5915		2.1563e-002
 987		9.7219e+001	-2.6519		-8.5014		2.0980e-002
 988		9.7318e+001	-2.6019		-8.4241		2.0400e-002
 989		9.7416e+001	-2.5026		-8.3416		1.9705e-002
 990		9.7515e+001	-2.4221		-8.2494		1.9316e-002
 991		9.7614e+001	-2.3395		-8.1564		1.8785e-002
 992		9.7712e+001	-2.2687		-8.0714		1.8258e-002
 993		9.7811e+001	-2.1882		-7.9796		1.7679e-002
 994		9.7909e+001	-2.1125		-7.8857		1.7040e-002
 995		9.8007e+001	-2.0438		-7.7896		1.6453e-002
 996		9.8106e+001	-1.9653		-7.6906		1.5858e-002
 997		9.8204e+001	-1.8570		-7.6001		1.4935e-002
 998		9.8303e+001	-1.8022		-7.4960		1.4703e-002
 999		9.8401e+001	-1.7265		-7.3923		1.4299e-002
1000		9.8500e+001	-1.6397		-7.2891		1.3585e-002
1001		9.8599e+001	-1.5648		-7.1828		1.3036e-002
1002		9.8697e+001	-1.4898		-7.0664		1.2367e-002
1003		9.8796e+001	-1.4141		-6.9585		1.1869e-002
1004		9.8894e+001	-1.3489		-6.8446		1.1675e-002
1005		9.8993e+001	-1.2461		-6.7328		1.0707e-002
1006		9.9091e+001	-1.1718		-6.6147		1.0097e-002
1007		9.9189e+001	-1.1003		-6.4906		9.4357e-003
1008		9.9288e+001	-1.0247		-6.3665		8.8638e-003
1009		9.9386e+001	-0.9275		-6.2399		8.1609e-003
1010		9.9485e+001	-0.8608		-6.1129		7.6974e-003
1011		9.9584e+001	-0.7845		-5.9777		6.9721e-003
1012		9.9682e+001	-0.6942		-5.8405		6.4151e-003
1013		9.9781e+001	-0.6199		-5.7024		5.8842e-003
1014		9.9879e+001	-0.5505		-5.5677		5.2487e-003
1015		9.9978e+001	-0.4651		-5.4177		4.7291e-003
1016		1.0008e+002	-0.3929		-5.2694		4.1347e-003
1017		1.0017e+002	-0.3082		-5.1194		3.5104e-003

PMax (µC/cm2):		1.50e+001
Pr (µC/cm2):		4.53e+000
-Pr (µC/cm2):		-5.12e+000
Vc:			2.02e+002
-Vc:			-1.82e+002
C (Max-Eff) (nF):	6.45e+000
Vert. Eccentricity (µC/cm2):	-2.95e-001

Horiz. Eccentricity (Volts):	9.99e+000

Offset (µC/cm2):	3.20e+000



Hysteresis Version: 4.6.11 - Radiant Technologies, Inc., 1999 - 12/12/11

»»»»»»»»»»»»»»»»»»»»»»»»»»»»»»»»»»»» Hysteresis ««««««««««««««««««««««««««««««««««««
»»»  Version:			4.6.11
»»»  Vision Version:		4.6.5 (R)
»»»  Vision Compiled:		7 December 2011
»»»  Driver Version:		4.6.17
»»»  Tester Name:		PPM21211-813
»»»  Tester S/N:		PPM21211-813                    
»»»  Internal Amp Type:		No Internal Amp
»»»  Internal Amp S/N:		100000
»»»  Execution Count:		0
»»»»»»»»»»»»»»»»»»»»»»»»»»»»»»»»»»»»»»»»»»««««««««««««««««««««««««««««««««««««««««««

Stored:				5/16/2024 - 22:14:56
Configured:			05/16/24 07:33:06 PM
Executed:			05/16/24 10:14:17 PM

»»»»»»»»»»»»»»»»»»»»»»»»»»»»»»»»»»» Sample Info ««««««««««««««««««««««««««««««««««««
Sample Name:			
Lot Name:			
Wafer Name:			
Die Row/Column:			0/0
Capacitor Number:		0
Sample Area (cm2):		9.44e-001
Sample Thickness (µm):		1.10e+003

Mux Loop Adjustment:		Disabled

Amplifier:			High Voltage (HVA)
HVI Channel/Port:		1/1
Drive Gain Factor:			1000.00r
Drive Voltage Limit:			4000.00r

»»»»»»»»»»»»»»»»»»»»»»»»»»»»»»»»»»» Tester Info «««««««««««««««««««««««««««««««««««
Tester Name:			PPM21211-813
Tester Serial Number:		PPM21211-813                    
Return Signal Amp. Level:	0.00019

»»»»»»»»»»»»»»»»»»»»»»»»»»»»»»»» Hysteresis Info ««««««««««««««««««««««««««««««««««
Task Name:			Hyst-2
Volts:				2198.00
Field:				20.00 (kV/cm)
Hysteresis Period (ms):		1.00e+002
Preset:				Enabled
Preset Delay (ms):		1.00e+002
Profile:			Standard Bipolar

Sensor Offset:			0.00  
Sensor Scale:			-0.05 
Sensor Impedance (Ohms):	50
Sensor Label:			%

»»»»»»»»»»»»»»»»»»»»»»»»»»»»»»»»»»»»»» Data «««««««««««««««««««««««««««««««««««««««
Points:				1017

Valid Data

Point		Time (ms)	Field (kV/cm)	Measured Polarization	Sensor
   1		9.8500e-002	-0.0264		-3.1779		7.4880e-003
   2		1.9700e-001	-0.0056		-3.1621		7.4880e-003
   3		2.9550e-001	0.0444		-3.1519		7.3235e-003
   4		3.9400e-001	0.0937		-3.1294		7.4843e-003
   5		4.9250e-001	0.1250		-3.0992		7.5366e-003
   6		5.9100e-001	0.1763		-3.0720		7.4880e-003
   7		6.8950e-001	0.2534		-3.0232		7.4245e-003
   8		7.8800e-001	0.2978		-2.9722		7.3721e-003
   9		8.8650e-001	0.3797		-2.9169		7.3011e-003
  10		9.8500e-001	0.4374		-2.8430		7.3123e-003
  11		1.0835e+000	0.5061		-2.7610		7.2413e-003
  12		1.1820e+000	0.5804		-2.6730		7.0432e-003
  13		1.2805e+000	0.6692		-2.5723		7.1366e-003
  14		1.3790e+000	0.7296		-2.4631		7.0805e-003
  15		1.4775e+000	0.8018		-2.3492		7.0880e-003
  16		1.5760e+000	0.8754		-2.2145		6.9123e-003
  17		1.6745e+000	0.9712		-2.0807		6.7254e-003
  18		1.7730e+000	1.0337		-1.9405		6.8076e-003
  19		1.8715e+000	1.1087		-1.7956		6.6469e-003
  20		1.9700e+000	1.2003		-1.6400		6.5983e-003
  21		2.0685e+000	1.2704		-1.4781		6.5609e-003
  22		2.1670e+000	1.3364		-1.3069		6.5086e-003
  23		2.2655e+000	1.4023		-1.1293		6.4151e-003
  24		2.3640e+000	1.5078		-0.9482		6.2282e-003
  25		2.4625e+000	1.5696		-0.7587		6.1646e-003
  26		2.5610e+000	1.6314		-0.5611		6.2244e-003
  27		2.6595e+000	1.7328		-0.3470		6.2469e-003
  28		2.7580e+000	1.8126		-0.1349		6.1459e-003
  29		2.8565e+000	1.8959		0.0945		6.2656e-003
  30		2.9550e+000	1.9396		0.3329		6.1646e-003
  31		3.0535e+000	2.0465		0.5632		6.8413e-003
  32		3.1520e+000	2.1132		0.8063		6.2207e-003
  33		3.2505e+000	2.2097		1.0464		6.2992e-003
  34		3.3490e+000	2.2701		1.2980		6.4487e-003
  35		3.4475e+000	2.3485		1.5448		6.5833e-003
  36		3.5460e+000	2.4270		1.7956		6.7403e-003
  37		3.6445e+000	2.5075		2.0429		6.8375e-003
  38		3.7430e+000	2.5894		2.2910		7.0618e-003
  39		3.8415e+000	2.6616		2.5264		7.4506e-003
  40		3.9400e+000	2.7428		2.7703		7.5217e-003
  41		4.0385e+000	2.8407		3.0070		7.9105e-003
  42		4.1370e+000	2.9067		3.2369		8.2095e-003
  43		4.2355e+000	2.9761		3.4655		8.5049e-003
  44		4.3340e+000	3.0649		3.6908		8.8525e-003
  45		4.4325e+000	3.1427		3.9028		9.1553e-003
  46		4.5310e+000	3.2198		4.1148		9.4507e-003
  47		4.6295e+000	3.2961		4.3188		9.9741e-003
  48		4.7280e+000	3.3822		4.5279		1.0456e-002
  49		4.8265e+000	3.4794		4.7267		1.0894e-002
  50		4.9250e+000	3.5294		4.9277		1.1395e-002
  51		5.0235e+000	3.6155		5.1087		1.1802e-002
  52		5.1220e+000	3.6870		5.2910		1.2273e-002
  53		5.2205e+000	3.7633		5.4661		1.2856e-002
  54		5.3190e+000	3.8452		5.6476		1.2737e-002
  55		5.4175e+000	3.9251		5.8175		1.4142e-002
  56		5.5160e+000	4.0063		5.9743		1.4512e-002
  57		5.6145e+000	4.0910		6.1426		1.5141e-002
  58		5.7130e+000	4.1556		6.3024		1.5713e-002
  59		5.8115e+000	4.2361		6.4498		1.5911e-002
  60		5.9100e+000	4.3090		6.6003		1.6864e-002
  61		6.0085e+000	4.3902		6.7486		1.7313e-002
  62		6.1070e+000	4.4513		6.8858		1.8281e-002
  63		6.2055e+000	4.5513		7.0252		1.8703e-002
  64		6.3040e+000	4.6255		7.1586		1.9298e-002
  65		6.4025e+000	4.7324		7.2895		1.9963e-002
  66		6.5010e+000	4.7803		7.4178		2.0610e-002
  67		6.5995e+000	4.8817		7.5394		2.1144e-002
  68		6.6980e+000	4.9428		7.6592		2.1829e-002
  69		6.7965e+000	5.0205		7.7765		2.2651e-002
  70		6.8950e+000	5.0948		7.8916		2.3137e-002
  71		6.9935e+000	5.1691		8.0021		2.3750e-002
  72		7.0920e+000	5.2677		8.1109		2.4341e-002
  73		7.1905e+000	5.3406		8.2108		2.5032e-002
  74		7.2890e+000	5.4225		8.3183		2.5720e-002
  75		7.3875e+000	5.4891		8.4296		2.6356e-002
  76		7.4860e+000	5.5849		8.5269		2.6950e-002
  77		7.5845e+000	5.6710		8.6306		2.7384e-002
  78		7.6830e+000	5.7279		8.7219		2.8184e-002
  79		7.7815e+000	5.8147		8.8197		2.8763e-002
  80		7.8800e+000	5.9001		8.9119		2.9507e-002
  81		7.9785e+000	5.9786		8.9977		3.0094e-002
  82		8.0770e+000	6.0487		9.0865		3.0842e-002
  83		8.1755e+000	6.1334		9.1737		3.1212e-002
  84		8.2740e+000	6.2104		9.2612		3.1369e-002
  85		8.3725e+000	6.2930		9.3411		3.2618e-002
  86		8.4710e+000	6.3583		9.4210		3.3302e-002
  87		8.5695e+000	6.4520		9.4970		3.3870e-002
  88		8.6680e+000	6.5277		9.5718		3.4535e-002
  89		8.7665e+000	6.6110		9.6496		3.5059e-002
  90		8.8650e+000	6.6818		9.7290		3.5616e-002
  91		8.9635e+000	6.7630		9.7979		3.6244e-002
  92		9.0620e+000	6.8297		9.8722		3.6849e-002
  93		9.1605e+000	6.9206		9.9449		3.7541e-002
  94		9.2590e+000	6.9970		10.0112		3.8068e-002
  95		9.3575e+000	7.0817		10.0749		3.8711e-002
  96		9.4560e+000	7.1379		10.1489		3.9335e-002
  97		9.5545e+000	7.2392		10.2109		3.9840e-002
  98		9.6530e+000	7.2989		10.2776		4.0330e-002
  99		9.7515e+000	7.3975		10.3418		4.0958e-002
 100		9.8500e+000	7.4656		10.4038		4.1679e-002
 101		9.9485e+000	7.5530		10.4586		4.2065e-002
 102		1.0047e+001	7.6183		10.5249		4.2786e-002
 103		1.0146e+001	7.7085		10.5840		4.3261e-002
 104		1.0244e+001	7.7766		10.6435		4.3833e-002
 105		1.0342e+001	7.8661		10.6962		4.4375e-002
 106		1.0441e+001	7.9522		10.7570		4.4386e-002
 107		1.0540e+001	8.0077		10.8084		4.5339e-002
 108		1.0638e+001	8.0897		10.8683		4.6020e-002
 109		1.0736e+001	8.1702		10.9244		4.6495e-002
 110		1.0835e+001	8.2465		10.9758		4.7111e-002
 111		1.0934e+001	8.3299		11.0327		4.7530e-002
 112		1.1032e+001	8.3979		11.0829		4.8106e-002
 113		1.1131e+001	8.5083		11.1360		4.8364e-002
 114		1.1229e+001	8.5520		11.1840		4.9074e-002
 115		1.1328e+001	8.6429		11.2422		4.9653e-002
 116		1.1426e+001	8.7131		11.2864		5.0214e-002
 117		1.1525e+001	8.8054		11.3344		5.0663e-002
 118		1.1623e+001	8.8797		11.3846		5.1175e-002
 119		1.1722e+001	8.9651		11.4322		5.1612e-002
 120		1.1820e+001	9.0310		11.4844		5.2308e-002
 121		1.1919e+001	9.1157		11.5231		5.2491e-002
 122		1.2017e+001	9.1775		11.5732		5.3082e-002
 123		1.2116e+001	9.2684		11.6179		5.3568e-002
 124		1.2214e+001	9.3448		11.6587		5.4020e-002
 125		1.2313e+001	9.4288		11.7058		5.4629e-002
 126		1.2411e+001	9.4899		11.7504		5.4876e-002
 127		1.2509e+001	9.5739		11.7891		5.5355e-002
 128		1.2608e+001	9.6426		11.8388		5.6431e-002
 129		1.2707e+001	9.7495		11.8762		5.6327e-002
 130		1.2805e+001	9.8224		11.9217		5.6820e-002
 131		1.2903e+001	9.8898		11.9621		5.7235e-002
 132		1.3002e+001	9.9731		12.0020		5.7803e-002
 133		1.3101e+001	10.0522		12.0390		5.8136e-002
 134		1.3199e+001	10.1355		12.0874		5.8566e-002
 135		1.3297e+001	10.2008		12.1223		5.8951e-002
 136		1.3396e+001	10.2820		12.1631		5.9399e-002
 137		1.3495e+001	10.3604		12.1975		6.0031e-002
 138		1.3593e+001	10.4465		12.2429		6.0386e-002
 139		1.3692e+001	10.5208		12.2778		6.0775e-002
 140		1.3790e+001	10.5902		12.3160		6.1235e-002
 141		1.3889e+001	10.6770		12.3509		6.1557e-002
 142		1.3987e+001	10.7513		12.3866		6.1942e-002
 143		1.4086e+001	10.8332		12.4248		6.2499e-002
 144		1.4184e+001	10.9151		12.4601		6.2772e-002
 145		1.4283e+001	11.0033		12.4903		6.3175e-002
 146		1.4381e+001	11.0637		12.5285		6.3601e-002
 147		1.4480e+001	11.1435		12.5638		6.3964e-002
 148		1.4578e+001	11.2310		12.5905		6.4334e-002
 149		1.4677e+001	11.3011		12.6288		6.4760e-002
 150		1.4775e+001	11.3816		12.6657		6.5179e-002
 151		1.4874e+001	11.4601		12.6929		6.5575e-002
 152		1.4972e+001	11.5413		12.7295		6.5960e-002
 153		1.5070e+001	11.6156		12.7601		6.6327e-002
 154		1.5169e+001	11.6996		12.7945		6.6712e-002
 155		1.5268e+001	11.7662		12.8191		6.7071e-002
 156		1.5366e+001	11.8363		12.8578		6.7474e-002
 157		1.5464e+001	11.9321		12.8888		6.7781e-002
 158		1.5563e+001	11.9953		12.9220		6.8065e-002
 159		1.5662e+001	12.0786		12.9522		6.8495e-002
 160		1.5760e+001	12.1682		12.9755		6.8895e-002
 161		1.5858e+001	12.2445		13.0070		6.9239e-002
 162		1.5957e+001	12.3132		13.0359		6.9598e-002
 163		1.6055e+001	12.4014		13.0677		6.9833e-002
 164		1.6154e+001	12.4785		13.1000		7.0256e-002
 165		1.6253e+001	12.5659		13.1255		7.0585e-002
 166		1.6351e+001	12.6409		13.1548		7.0921e-002
 167		1.6450e+001	12.7159		13.1854		7.1265e-002
 168		1.6548e+001	12.7839		13.2152		7.1568e-002
 169		1.6647e+001	12.8846		13.2424		7.2028e-002
 170		1.6745e+001	12.9686		13.2700		7.2316e-002
 171		1.6843e+001	13.0200		13.2955		7.2701e-002
 172		1.6942e+001	13.0970		13.3265		7.3048e-002
 173		1.7041e+001	13.2025		13.3503		7.2944e-002
 174		1.7139e+001	13.2615		13.3762		7.3590e-002
 175		1.7238e+001	13.3289		13.4026		7.3908e-002
 176		1.7336e+001	13.4191		13.4319		7.4319e-002
 177		1.7435e+001	13.4899		13.4553		7.4551e-002
 178		1.7533e+001	13.5594		13.4769		7.4820e-002
 179		1.7631e+001	13.6531		13.5084		7.5093e-002
 180		1.7730e+001	13.7329		13.5301		7.5807e-002
 181		1.7828e+001	13.8183		13.5556		7.5770e-002
 182		1.7927e+001	13.8836		13.5802		7.6144e-002
 183		1.8026e+001	13.9599		13.6044		7.6368e-002
 184		1.8124e+001	14.0328		13.6278		7.6738e-002
 185		1.8223e+001	14.1196		13.6558		7.6944e-002
 186		1.8321e+001	14.1994		13.6805		7.7269e-002
 187		1.8419e+001	14.2681		13.6932		7.7520e-002
 188		1.8518e+001	14.3501		13.7298		7.7822e-002
 189		1.8616e+001	14.4230		13.7481		7.8151e-002
 190		1.8715e+001	14.5090		13.7731		7.8420e-002
 191		1.8814e+001	14.6048		13.7995		7.8637e-002
 192		1.8912e+001	14.6687		13.8182		7.9004e-002
 193		1.9011e+001	14.7631		13.8488		7.9277e-002
 194		1.9109e+001	14.8395		13.8696		7.9557e-002
 195		1.9208e+001	14.9138		13.8930		7.9635e-002
 196		1.9306e+001	14.9825		13.9116		8.0159e-002
 197		1.9404e+001	15.0623		13.9320		8.0379e-002
 198		1.9503e+001	15.1491		13.9588		8.0671e-002
 199		1.9602e+001	15.2317		13.9784		8.0839e-002
 200		1.9700e+001	15.2873		14.0000		8.1206e-002
 201		1.9799e+001	15.3942		14.0213		8.1479e-002
 202		1.9897e+001	15.4400		14.0417		8.1778e-002
 203		1.9996e+001	15.5337		14.0672		8.1987e-002
 204		2.0094e+001	15.6163		14.0863		8.2335e-002
 205		2.0192e+001	15.6816		14.1063		8.2514e-002
 206		2.0291e+001	15.7725		14.1262		8.2742e-002
 207		2.0390e+001	15.8475		14.1475		8.3116e-002
 208		2.0488e+001	15.9294		14.1713		8.3179e-002
 209		2.0587e+001	16.0301		14.1857		8.3460e-002
 210		2.0685e+001	16.0738		14.2108		8.3778e-002
 211		2.0784e+001	16.1522		14.2286		8.3991e-002
 212		2.0882e+001	16.2328		14.2461		8.4308e-002
 213		2.0980e+001	16.3202		14.2639		8.4604e-002
 214		2.1079e+001	16.3910		14.2830		8.4783e-002
 215		2.1177e+001	16.4709		14.3060		8.5041e-002
 216		2.1276e+001	16.5334		14.3247		8.5247e-002
 217		2.1375e+001	16.6299		14.3404		8.5467e-002
 218		2.1473e+001	16.6958		14.3595		8.5602e-002
 219		2.1572e+001	16.7868		14.3812		8.6062e-002
 220		2.1670e+001	16.8777		14.4054		8.6234e-002
 221		2.1769e+001	16.9610		14.4207		8.6503e-002
 222		2.1867e+001	17.0242		14.4437		8.6731e-002
 223		2.1965e+001	17.1221		14.4551		8.6723e-002
 224		2.2064e+001	17.1949		14.4747		8.7224e-002
 225		2.2163e+001	17.2713		14.4998		8.7363e-002
 226		2.2261e+001	17.3435		14.5151		8.7737e-002
 227		2.2360e+001	17.4282		14.5308		8.7856e-002
 228		2.2458e+001	17.4907		14.5473		8.8193e-002
 229		2.2557e+001	17.5691		14.5665		8.8361e-002
 230		2.2655e+001	17.6566		14.5903		8.8492e-002
 231		2.2753e+001	17.7406		14.6068		8.8798e-002
 232		2.2852e+001	17.8197		14.6217		8.8985e-002
 233		2.2951e+001	17.8947		14.6370		8.9333e-002
 234		2.3049e+001	17.9745		14.6549		8.9501e-002
 235		2.3148e+001	18.0509		14.6740		8.9733e-002
 236		2.3246e+001	18.1335		14.6910		8.9778e-002
 237		2.3345e+001	18.2043		14.7046		9.0193e-002
 238		2.3443e+001	18.2856		14.7267		9.0739e-002
 239		2.3541e+001	18.3626		14.7420		9.0716e-002
 240		2.3640e+001	18.4327		14.7577		9.0873e-002
 241		2.3738e+001	18.5244		14.7760		9.1082e-002
 242		2.3837e+001	18.6042		14.7904		9.1329e-002
 243		2.3936e+001	18.6785		14.8057		9.1512e-002
 244		2.4034e+001	18.7555		14.8189		9.1714e-002
 245		2.4133e+001	18.8354		14.8329		9.1871e-002
 246		2.4231e+001	18.9131		14.8580		9.2182e-002
 247		2.4329e+001	18.9964		14.8699		9.2413e-002
 248		2.4428e+001	19.0596		14.8877		9.2641e-002
 249		2.4526e+001	19.1505		14.9026		9.2840e-002
 250		2.4625e+001	19.2227		14.9183		9.3011e-002
 251		2.4724e+001	19.3012		14.9345		9.3180e-002
 252		2.4822e+001	19.3831		14.9464		9.3423e-002
 253		2.4921e+001	19.4560		14.9668		9.3793e-002
 254		2.5019e+001	19.5372		14.9774		9.3912e-002
 255		2.5118e+001	19.6198		14.9940		9.4167e-002
 256		2.5216e+001	19.6476		15.0020		9.4339e-002
 257		2.5314e+001	19.6663		15.0063		9.4522e-002
 258		2.5413e+001	19.6483		15.0105		9.4555e-002
 259		2.5512e+001	19.6268		15.0105		9.4843e-002
 260		2.5610e+001	19.5810		15.0003		9.5613e-002
 261		2.5709e+001	19.5629		14.9986		9.5191e-002
 262		2.5807e+001	19.5219		14.9974		9.5277e-002
 263		2.5906e+001	19.4713		14.9914		9.5490e-002
 264		2.6004e+001	19.4150		14.9872		9.5516e-002
 265		2.6102e+001	19.3546		14.9736		9.5613e-002
 266		2.6201e+001	19.2873		14.9685		9.5617e-002
 267		2.6299e+001	19.2359		14.9600		9.5651e-002
 268		2.6398e+001	19.1519		14.9476		9.5718e-002
 269		2.6497e+001	19.0853		14.9451		9.5826e-002
 270		2.6595e+001	19.0193		14.9306		9.5849e-002
 271		2.6694e+001	18.9437		14.9243		9.5898e-002
 272		2.6792e+001	18.8638		14.9175		9.5797e-002
 273		2.6890e+001	18.7965		14.9039		9.5763e-002
 274		2.6989e+001	18.7180		14.8894		9.5602e-002
 275		2.7087e+001	18.6452		14.8839		9.5688e-002
 276		2.7186e+001	18.5577		14.8690		9.5688e-002
 277		2.7285e+001	18.4917		14.8588		9.5722e-002
 278		2.7383e+001	18.4147		14.8495		9.5688e-002
 279		2.7482e+001	18.3446		14.8372		9.5583e-002
 280		2.7580e+001	18.2731		14.8202		9.5464e-002
 281		2.7679e+001	18.2016		14.8091		9.5516e-002
 282		2.7777e+001	18.1051		14.7968		9.5262e-002
 283		2.7875e+001	18.0301		14.7908		9.5236e-002
 284		2.7974e+001	17.9503		14.7709		9.5161e-002
 285		2.8073e+001	17.8676		14.7636		9.5041e-002
 286		2.8171e+001	17.8003		14.7530		9.4914e-002
 287		2.8270e+001	17.7198		14.7373		9.4772e-002
 288		2.8368e+001	17.6441		14.7275		9.4668e-002
 289		2.8467e+001	17.5615		14.7088		9.4537e-002
 290		2.8565e+001	17.4712		14.7012		9.4447e-002
 291		2.8663e+001	17.4067		14.6855		9.4376e-002
 292		2.8762e+001	17.3303		14.6736		9.4238e-002
 293		2.8860e+001	17.2428		14.6583		9.4051e-002
 294		2.8959e+001	17.1575		14.6468		9.3950e-002
 295		2.9058e+001	17.0853		14.6281		9.3595e-002
 296		2.9156e+001	16.9971		14.6209		9.3654e-002
 297		2.9255e+001	16.9318		14.6060		9.3494e-002
 298		2.9353e+001	16.8471		14.5886		9.3374e-002
 299		2.9451e+001	16.7562		14.5771		9.3157e-002
 300		2.9550e+001	16.6937		14.5597		9.3094e-002
 301		2.9648e+001	16.6139		14.5482		9.2866e-002
 302		2.9747e+001	16.5320		14.5359		9.3038e-002
 303		2.9846e+001	16.4542		14.5214		9.2488e-002
 304		2.9944e+001	16.3730		14.5049		9.2395e-002
 305		3.0043e+001	16.2994		14.4925		9.2271e-002
 306		3.0141e+001	16.2140		14.4747		9.2062e-002
 307		3.0240e+001	16.1363		14.4666		9.1845e-002
 308		3.0338e+001	16.0551		14.4454		9.1654e-002
 309		3.0436e+001	15.9856		14.4301		9.2036e-002
 310		3.0535e+001	15.8968		14.4105		9.1359e-002
 311		3.0634e+001	15.8225		14.4041		9.1183e-002
 312		3.0732e+001	15.7531		14.3880		9.1068e-002
 313		3.0831e+001	15.6705		14.3731		9.0854e-002
 314		3.0929e+001	15.5858		14.3515		9.0496e-002
 315		3.1028e+001	15.5170		14.3413		9.0361e-002
 316		3.1126e+001	15.4233		14.3260		9.0062e-002
 317		3.1224e+001	15.3581		14.3098		9.0069e-002
 318		3.1323e+001	15.2727		14.2932		8.9823e-002
 319		3.1422e+001	15.1949		14.2809		8.9778e-002
 320		3.1520e+001	15.1179		14.2580		8.9527e-002
 321		3.1619e+001	15.0505		14.2376		8.9049e-002
 322		3.1717e+001	14.9561		14.2329		8.9086e-002
 323		3.1816e+001	14.8818		14.2091		8.8813e-002
 324		3.1914e+001	14.8110		14.1938		8.8626e-002
 325		3.2013e+001	14.7222		14.1764		8.8552e-002
 326		3.2111e+001	14.6375		14.1568		8.8297e-002
 327		3.2209e+001	14.5618		14.1403		8.8073e-002
 328		3.2308e+001	14.4868		14.1262		8.7841e-002
 329		3.2407e+001	14.4084		14.1101		8.7695e-002
 330		3.2505e+001	14.3341		14.0901		8.7501e-002
 331		3.2603e+001	14.2466		14.0718		8.7322e-002
 332		3.2702e+001	14.1668		14.0591		8.7191e-002
 333		3.2801e+001	14.0995		14.0345		8.6858e-002
 334		3.2899e+001	14.0141		14.0200		8.6660e-002
 335		3.2998e+001	13.9446		14.0051		8.6413e-002
 336		3.3096e+001	13.8662		13.9792		8.6249e-002
 337		3.3194e+001	13.7898		13.9660		8.6252e-002
 338		3.3293e+001	13.7031		13.9456		8.5882e-002
 339		3.3392e+001	13.6218		13.9197		8.5613e-002
 340		3.3490e+001	13.5385		13.9129		8.5460e-002
 341		3.3589e+001	13.4615		13.8913		8.5209e-002
 342		3.3687e+001	13.3976		13.8709		8.4948e-002
 343		3.3785e+001	13.3129		13.8509		8.4783e-002
 344		3.3884e+001	13.2282		13.8356		8.4682e-002
 345		3.3983e+001	13.1532		13.8131		8.4417e-002
 346		3.4081e+001	13.0741		13.7969		8.4122e-002
 347		3.4179e+001	12.9943		13.7799		8.3864e-002
 348		3.4278e+001	12.9110		13.7587		8.3669e-002
 349		3.4377e+001	12.8547		13.7332		8.3475e-002
 350		3.4475e+001	12.7499		13.7183		8.3086e-002
 351		3.4574e+001	12.6756		13.6937		8.2895e-002
 352		3.4672e+001	12.6027		13.6750		8.3064e-002
 353		3.4770e+001	12.5208		13.6516		8.2458e-002
 354		3.4869e+001	12.4465		13.6346		8.1942e-002
 355		3.4968e+001	12.3605		13.6142		8.2050e-002
 356		3.5066e+001	12.2903		13.5917		8.1781e-002
 357		3.5164e+001	12.2168		13.5704		8.1542e-002
 358		3.5263e+001	12.1348		13.5500		8.1381e-002
 359		3.5361e+001	12.0515		13.5288		8.0473e-002
 360		3.5460e+001	11.9821		13.5046		8.0832e-002
 361		3.5559e+001	11.9030		13.4863		8.0637e-002
 362		3.5657e+001	11.8231		13.4629		8.0421e-002
 363		3.5755e+001	11.7377		13.4315		8.0148e-002
 364		3.5854e+001	11.6655		13.4145		7.9905e-002
 365		3.5953e+001	11.5940		13.3924		7.9602e-002
 366		3.6051e+001	11.5184		13.3733		7.9591e-002
 367		3.6150e+001	11.4365		13.3503		7.9123e-002
 368		3.6248e+001	11.3538		13.3291		7.8903e-002
 369		3.6346e+001	11.2803		13.2955		7.8701e-002
 370		3.6445e+001	11.1893		13.2726		7.8413e-002
 371		3.6544e+001	11.1185		13.2556		7.8035e-002
 372		3.6642e+001	11.0345		13.2322		7.7916e-002
 373		3.6740e+001	10.9456		13.2088		7.7430e-002
 374		3.6839e+001	10.8839		13.1812		7.7392e-002
 375		3.6938e+001	10.8068		13.1633		7.7198e-002
 376		3.7036e+001	10.7228		13.1323		7.6985e-002
 377		3.7135e+001	10.6555		13.1047		7.6686e-002
 378		3.7233e+001	10.5694		13.0835		7.6409e-002
 379		3.7331e+001	10.4965		13.0601		7.6114e-002
 380		3.7430e+001	10.4069		13.0286		7.5908e-002
 381		3.7529e+001	10.3361		13.0027		7.5572e-002
 382		3.7627e+001	10.2452		12.9849		7.5321e-002
 383		3.7725e+001	10.1778		12.9488		7.5224e-002
 384		3.7824e+001	10.0890		12.9254		7.4761e-002
 385		3.7922e+001	10.0119		12.8969		7.4488e-002
 386		3.8021e+001	9.9328		12.8731		7.4192e-002
 387		3.8120e+001	9.8488		12.8536		7.3908e-002
 388		3.8218e+001	9.7787		12.8221		7.3729e-002
 389		3.8316e+001	9.7058		12.7886		7.3392e-002
 390		3.8415e+001	9.6211		12.7631		7.3142e-002
 391		3.8514e+001	9.5510		12.7303		7.2768e-002
 392		3.8612e+001	9.4677		12.7095		7.2566e-002
 393		3.8711e+001	9.3913		12.6781		7.2222e-002
 394		3.8809e+001	9.2941		12.6488		7.1931e-002
 395		3.8907e+001	9.2198		12.6203		7.1605e-002
 396		3.9006e+001	9.1560		12.5867		7.1422e-002
 397		3.9105e+001	9.0775		12.5599		7.1033e-002
 398		3.9203e+001	9.0060		12.5293		7.0805e-002
 399		3.9301e+001	8.9227		12.4992		7.0525e-002
 400		3.9400e+001	8.8255		12.4690		7.0203e-002
 401		3.9499e+001	8.7554		12.4354		6.9803e-002
 402		3.9597e+001	8.6846		12.4087		6.9538e-002
 403		3.9696e+001	8.5923		12.3713		6.9254e-002
 404		3.9794e+001	8.5166		12.3445		6.8899e-002
 405		3.9892e+001	8.4298		12.3105		6.8660e-002
 406		3.9991e+001	8.3569		12.2778		6.8312e-002
 407		4.0090e+001	8.2813		12.2404		6.7897e-002
 408		4.0188e+001	8.2160		12.2055		6.7818e-002
 409		4.0286e+001	8.1383		12.1800		6.7366e-002
 410		4.0385e+001	8.0494		12.1452		6.6973e-002
 411		4.0483e+001	7.9696		12.1082		6.6686e-002
 412		4.0582e+001	7.8856		12.0738		6.6334e-002
 413		4.0681e+001	7.8175		12.0432		6.5998e-002
 414		4.0779e+001	7.7356		11.9995		6.5616e-002
 415		4.0877e+001	7.6516		11.9684		6.5086e-002
 416		4.0976e+001	7.5732		11.9310		6.5037e-002
 417		4.1075e+001	7.5128		11.8953		6.4652e-002
 418		4.1173e+001	7.4211		11.8614		6.4484e-002
 419		4.1272e+001	7.3524		11.8244		6.4039e-002
 420		4.1370e+001	7.2635		11.7836		6.3736e-002
 421		4.1468e+001	7.1795		11.7470		6.3216e-002
 422		4.1567e+001	7.0782		11.7075		6.3029e-002
 423		4.1666e+001	7.0261		11.6693		6.2603e-002
 424		4.1764e+001	6.9442		11.6310		6.2383e-002
 425		4.1862e+001	6.8810		11.5915		6.1856e-002
 426		4.1961e+001	6.7915		11.5490		6.1527e-002
 427		4.2060e+001	6.7186		11.5078		6.1130e-002
 428		4.2158e+001	6.6256		11.4670		6.0742e-002
 429		4.2257e+001	6.5430		11.4300		6.0626e-002
 430		4.2355e+001	6.4680		11.3876		6.0020e-002
 431		4.2453e+001	6.4041		11.3387		5.9740e-002
 432		4.2552e+001	6.3271		11.3013		5.9351e-002
 433		4.2651e+001	6.2417		11.2571		5.8966e-002
 434		4.2749e+001	6.1591		11.2121		5.8611e-002
 435		4.2847e+001	6.0903		11.1649		5.8147e-002
 436		4.2946e+001	5.9855		11.1241		5.7725e-002
 437		4.3044e+001	5.9369		11.0744		5.7426e-002
 438		4.3143e+001	5.8467		11.0255		5.7048e-002
 439		4.3242e+001	5.7606		10.9868		5.6678e-002
 440		4.3340e+001	5.6807		10.9333		5.6274e-002
 441		4.3438e+001	5.6009		10.8891		5.5882e-002
 442		4.3537e+001	5.5197		10.8373		5.5392e-002
 443		4.3636e+001	5.4510		10.7846		5.5026e-002
 444		4.3734e+001	5.3781		10.7327		5.4558e-002
 445		4.3833e+001	5.3003		10.6847		5.4240e-002
 446		4.3931e+001	5.2101		10.6375		5.3747e-002
 447		4.4029e+001	5.1281		10.5844		5.3399e-002
 448		4.4128e+001	5.0559		10.5334		5.2925e-002
 449		4.4227e+001	4.9879		10.4812		5.2528e-002
 450		4.4325e+001	4.9060		10.4276		5.2020e-002
 451		4.4423e+001	4.8324		10.3664		5.1168e-002
 452		4.4522e+001	4.7380		10.3103		5.1216e-002
 453		4.4621e+001	4.6686		10.2598		5.0850e-002
 454		4.4719e+001	4.5762		10.2054		5.0278e-002
 455		4.4818e+001	4.5013		10.1480		4.9904e-002
 456		4.4916e+001	4.4221		10.0881		4.9496e-002
 457		4.5014e+001	4.3555		10.0303		4.8943e-002
 458		4.5113e+001	4.2701		9.9679		4.9037e-002
 459		4.5212e+001	4.1882		9.9054		4.8113e-002
 460		4.5310e+001	4.1063		9.8455		4.7627e-002
 461		4.5408e+001	4.0368		9.7885		4.7261e-002
 462		4.5507e+001	3.9487		9.7239		4.6700e-002
 463		4.5605e+001	3.8730		9.6598		4.6311e-002
 464		4.5704e+001	3.7953		9.5943		4.5751e-002
 465		4.5803e+001	3.7307		9.5331		4.5493e-002
 466		4.5901e+001	3.6307		9.4643		4.4823e-002
 467		4.5999e+001	3.5655		9.3912		4.4326e-002
 468		4.6098e+001	3.4697		9.3224		4.3893e-002
 469		4.6197e+001	3.4016		9.2506		4.3440e-002
 470		4.6295e+001	3.3142		9.1843		4.2887e-002
 471		4.6394e+001	3.2572		9.1099		4.2360e-002
 472		4.6492e+001	3.1642		9.0372		4.1964e-002
 473		4.6590e+001	3.0906		8.9680		4.1436e-002
 474		4.6689e+001	3.0108		8.8957		4.0950e-002
 475		4.6788e+001	2.9386		8.8103		4.0427e-002
 476		4.6886e+001	2.8400		8.7351		3.9982e-002
 477		4.6984e+001	2.7706		8.6561		3.9451e-002
 478		4.7083e+001	2.6949		8.5762		3.8894e-002
 479		4.7182e+001	2.6220		8.4929		3.8412e-002
 480		4.7280e+001	2.5318		8.4122		3.7922e-002
 481		4.7379e+001	2.4686		8.3238		3.7264e-002
 482		4.7477e+001	2.3832		8.2397		3.6827e-002
 483		4.7575e+001	2.3013		8.1513		3.6263e-002
 484		4.7674e+001	2.2277		8.0582		3.5803e-002
 485		4.7773e+001	2.1507		7.9656		3.5119e-002
 486		4.7871e+001	2.0681		7.8768		3.4547e-002
 487		4.7969e+001	1.9938		7.7769		3.4132e-002
 488		4.8068e+001	1.9070		7.6813		3.3526e-002
 489		4.8166e+001	1.8355		7.5802		3.3044e-002
 490		4.8265e+001	1.7473		7.4858		3.2505e-002
 491		4.8364e+001	1.6765		7.3826		3.1900e-002
 492		4.8462e+001	1.5946		7.2840		3.1406e-002
 493		4.8560e+001	1.5259		7.1718		3.0718e-002
 494		4.8659e+001	1.4502		7.0596		3.0146e-002
 495		4.8758e+001	1.3579		6.9508		2.9687e-002
 496		4.8856e+001	1.2787		6.8340		2.9115e-002
 497		4.8955e+001	1.2107		6.7150		2.8573e-002
 498		4.9053e+001	1.1246		6.5994		2.8042e-002
 499		4.9151e+001	1.0483		6.4758		2.7384e-002
 500		4.9250e+001	0.9663		6.3504		2.6730e-002
 501		4.9349e+001	0.8914		6.2233		2.6229e-002
 502		4.9447e+001	0.8108		6.0891		2.5702e-002
 503		4.9545e+001	0.7331		5.9578		2.5126e-002
 504		4.9644e+001	0.6574		5.8184		2.4546e-002
 505		4.9743e+001	0.5804		5.6786		2.3922e-002
 506		4.9841e+001	0.5026		5.5362		2.3372e-002
 507		4.9940e+001	0.4096		5.3909		2.2793e-002
 508		5.0038e+001	0.3388		5.2307		2.2191e-002
 509		5.0136e+001	0.2694		5.0769		2.1784e-002
 510		5.0235e+001	0.1819		4.9231		2.1141e-002
 511		5.0334e+001	0.1097		4.7497		2.0606e-002
 512		5.0432e+001	0.0354		4.5848		2.0060e-002
 513		5.0531e+001	-0.0479		4.4114		1.9458e-002
 514		5.0629e+001	-0.1180		4.2313		1.8823e-002
 515		5.0727e+001	-0.2090		4.0511		1.8460e-002
 516		5.0826e+001	-0.2798		3.8633		1.7791e-002
 517		5.0925e+001	-0.3527		3.6733		1.7286e-002
 518		5.1023e+001	-0.4408		3.4753		1.6789e-002
 519		5.1121e+001	-0.5082		3.2760		1.6243e-002
 520		5.1220e+001	-0.6019		3.0708		1.5780e-002
 521		5.1319e+001	-0.6769		2.8621		1.5215e-002
 522		5.1417e+001	-0.7359		2.6480		1.4625e-002
 523		5.1516e+001	-0.8164		2.4330		1.4281e-002
 524		5.1614e+001	-0.9094		2.2128		1.3847e-002
 525		5.1712e+001	-0.9858		1.9914		1.3395e-002
 526		5.1811e+001	-1.0719		1.7641		1.3010e-002
 527		5.1910e+001	-1.1371		1.5342		1.2539e-002
 528		5.2008e+001	-1.2239		1.2988		1.2210e-002
 529		5.2106e+001	-1.2912		1.0532		1.1832e-002
 530		5.2205e+001	-1.3780		0.8008		1.1466e-002
 531		5.2304e+001	-1.4620		0.5454		1.1230e-002
 532		5.2402e+001	-1.5335		0.2960		1.0972e-002
 533		5.2501e+001	-1.6175		0.0300		1.0707e-002
 534		5.2599e+001	-1.7029		-0.2356		1.0490e-002
 535		5.2697e+001	-1.7855		-0.5021		1.0344e-002
 536		5.2796e+001	-1.8653		-0.7719		1.0041e-002
 537		5.2895e+001	-1.9285		-1.0421		1.0161e-002
 538		5.2993e+001	-2.0146		-1.3060		9.8582e-003
 539		5.3092e+001	-2.0882		-1.5805		9.8133e-003
 540		5.3190e+001	-2.1812		-1.8491		9.8096e-003
 541		5.3288e+001	-2.2472		-2.1066		9.7385e-003
 542		5.3387e+001	-2.3235		-2.3637		9.7871e-003
 543		5.3486e+001	-2.4131		-2.6152		9.8619e-003
 544		5.3584e+001	-2.4846		-2.8685		9.8956e-003
 545		5.3682e+001	-2.5609		-3.1026		1.0191e-002
 546		5.3781e+001	-2.6373		-3.3410		1.0180e-002
 547		5.3880e+001	-2.7130		-3.5713		1.0456e-002
 548		5.3978e+001	-2.7935		-3.7970		1.0688e-002
 549		5.4077e+001	-2.8803		-4.0128		1.0912e-002
 550		5.4175e+001	-2.9539		-4.2313		1.1088e-002
 551		5.4273e+001	-3.0261		-4.4331		1.1256e-002
 552		5.4372e+001	-3.0976		-4.6333		1.1742e-002
 553		5.4471e+001	-3.2052		-4.8262		1.2232e-002
 554		5.4569e+001	-3.2614		-5.0191		1.2490e-002
 555		5.4667e+001	-3.3524		-5.2056		1.2812e-002
 556		5.4766e+001	-3.4169		-5.3841		1.3301e-002
 557		5.4865e+001	-3.5072		-5.5558		1.3686e-002
 558		5.4963e+001	-3.5807		-5.7283		1.4064e-002
 559		5.5062e+001	-3.6585		-5.8885		1.4557e-002
 560		5.5160e+001	-3.7335		-6.0449		1.5043e-002
 561		5.5258e+001	-3.8001		-6.2030		1.5376e-002
 562		5.5357e+001	-3.8883		-6.3513		1.5970e-002
 563		5.5456e+001	-3.9695		-6.5030		1.6516e-002
 564		5.5554e+001	-4.0577		-6.6411		1.6969e-002
 565		5.5653e+001	-4.1153		-6.7838		1.7563e-002
 566		5.5751e+001	-4.2097		-6.9190		1.8176e-002
 567		5.5849e+001	-4.2819		-7.0443		1.8625e-002
 568		5.5948e+001	-4.3617		-7.1794		1.9163e-002
 569		5.6047e+001	-4.4527		-7.2955		1.9556e-002
 570		5.6145e+001	-4.5235		-7.4178		2.0217e-002
 571		5.6243e+001	-4.5887		-7.5385		2.0879e-002
 572		5.6342e+001	-4.6769		-7.6537		2.1421e-002
 573		5.6441e+001	-4.7491		-7.7663		2.2034e-002
 574		5.6539e+001	-4.8352		-7.8793		2.2617e-002
 575		5.6638e+001	-4.9081		-7.9830		2.3126e-002
 576		5.6736e+001	-4.9969		-8.0914		2.3761e-002
 577		5.6834e+001	-5.0330		-8.1938		2.3784e-002
 578		5.6933e+001	-5.1511		-8.2923		2.4961e-002
 579		5.7032e+001	-5.2309		-8.3960		2.5522e-002
 580		5.7130e+001	-5.3045		-8.4925		2.6210e-002
 581		5.7228e+001	-5.3864		-8.5792		2.6715e-002
 582		5.7327e+001	-5.4718		-8.6773		2.7275e-002
 583		5.7426e+001	-5.5461		-8.7704		2.7829e-002
 584		5.7524e+001	-5.6245		-8.8609		2.8434e-002
 585		5.7623e+001	-5.6766		-8.9561		2.8756e-002
 586		5.7721e+001	-5.7828		-9.0372		2.9735e-002
 587		5.7819e+001	-5.8640		-9.1197		3.0378e-002
 588		5.7918e+001	-5.9536		-9.2089		3.0984e-002
 589		5.8017e+001	-6.0230		-9.2888		3.1518e-002
 590		5.8115e+001	-6.0924		-9.3666		3.2094e-002
 591		5.8214e+001	-6.1743		-9.4482		3.2662e-002
 592		5.8312e+001	-6.2625		-9.5225		3.3208e-002
 593		5.8410e+001	-6.3284		-9.5965		3.3732e-002
 594		5.8509e+001	-6.4201		-9.6661		3.4517e-002
 595		5.8608e+001	-6.4951		-9.7477		3.4932e-002
 596		5.8706e+001	-6.5707		-9.8191		3.5620e-002
 597		5.8804e+001	-6.6311		-9.8884		3.6206e-002
 598		5.8903e+001	-6.7387		-9.9492		3.6771e-002
 599		5.9002e+001	-6.8026		-10.0201		3.7302e-002
 600		5.9100e+001	-6.8880		-10.0890		3.8143e-002
 601		5.9199e+001	-6.9623		-10.1548		3.8375e-002
 602		5.9297e+001	-7.0428		-10.2203		3.9048e-002
 603		5.9395e+001	-7.1150		-10.2844		3.9631e-002
 604		5.9494e+001	-7.1983		-10.3448		4.0106e-002
 605		5.9593e+001	-7.2670		-10.4064		4.0861e-002
 606		5.9691e+001	-7.3552		-10.4633		4.1220e-002
 607		5.9789e+001	-7.4308		-10.5313		4.1702e-002
 608		5.9888e+001	-7.5218		-10.5883		4.2494e-002
 609		5.9986e+001	-7.5822		-10.6431		4.2917e-002
 610		6.0085e+001	-7.6731		-10.7021		4.3392e-002
 611		6.0184e+001	-7.7495		-10.7565		4.4020e-002
 612		6.0282e+001	-7.8293		-10.8156		4.4517e-002
 613		6.0380e+001	-7.9001		-10.8742		4.5063e-002
 614		6.0479e+001	-7.9730		-10.9201		4.5552e-002
 615		6.0578e+001	-8.0598		-10.9728		4.6154e-002
 616		6.0676e+001	-8.1369		-11.0242		4.6603e-002
 617		6.0775e+001	-8.2077		-11.0752		4.7093e-002
 618		6.0873e+001	-8.2986		-11.1326		4.7657e-002
 619		6.0971e+001	-8.3736		-11.1819		4.8053e-002
 620		6.1070e+001	-8.4618		-11.2269		4.8581e-002
 621		6.1169e+001	-8.5305		-11.2839		4.9033e-002
 622		6.1267e+001	-8.6256		-11.3213		4.9560e-002
 623		6.1365e+001	-8.6943		-11.3757		4.9706e-002
 624		6.1464e+001	-8.7679		-11.4198		5.0536e-002
 625		6.1563e+001	-8.8332		-11.4666		5.0988e-002
 626		6.1661e+001	-8.9317		-11.5146		5.1582e-002
 627		6.1760e+001	-8.9991		-11.5609		5.2009e-002
 628		6.1858e+001	-9.0789		-11.6034		5.2412e-002
 629		6.1956e+001	-9.1622		-11.6476		5.2883e-002
 630		6.2055e+001	-9.2462		-11.6939		5.3209e-002
 631		6.2154e+001	-9.3184		-11.7407		5.3751e-002
 632		6.2252e+001	-9.3941		-11.7781		5.4297e-002
 633		6.2350e+001	-9.4718		-11.8184		5.4712e-002
 634		6.2449e+001	-9.5524		-11.8626		5.5179e-002
 635		6.2547e+001	-9.6246		-11.8983		5.5762e-002
 636		6.2646e+001	-9.7065		-11.9442		5.6091e-002
 637		6.2745e+001	-9.7766		-11.9880		5.6525e-002
 638		6.2843e+001	-9.8710		-12.0254		5.6884e-002
 639		6.2941e+001	-9.9383		-12.0687		5.7392e-002
 640		6.3040e+001	-10.0300		-12.1002		5.7878e-002
 641		6.3139e+001	-10.0883		-12.1448		5.8125e-002
 642		6.3237e+001	-10.1758		-12.1864		5.8727e-002
 643		6.3336e+001	-10.2598		-12.2196		5.9115e-002
 644		6.3434e+001	-10.3389		-12.2604		5.9542e-002
 645		6.3532e+001	-10.4104		-12.2956		5.9803e-002
 646		6.3631e+001	-10.4986		-12.3301		6.0327e-002
 647		6.3730e+001	-10.5756		-12.3674		6.0633e-002
 648		6.3828e+001	-10.6492		-12.4027		6.1082e-002
 649		6.3926e+001	-10.7193		-12.4325		6.1542e-002
 650		6.4025e+001	-10.8019		-12.4728		6.1960e-002
 651		6.4124e+001	-10.8839		-12.5030		6.2248e-002
 652		6.4222e+001	-10.9651		-12.5395		6.2536e-002
 653		6.4320e+001	-11.0442		-12.5765		6.2992e-002
 654		6.4419e+001	-11.1136		-12.6160		6.3515e-002
 655		6.4517e+001	-11.2032		-12.6415		6.3822e-002
 656		6.4616e+001	-11.2789		-12.6755		6.4196e-002
 657		6.4715e+001	-11.3490		-12.7065		6.4555e-002
 658		6.4813e+001	-11.4323		-12.7303		6.4977e-002
 659		6.4912e+001	-11.5100		-12.7716		6.5295e-002
 660		6.5010e+001	-11.5815		-12.7988		6.5628e-002
 661		6.5109e+001	-11.6683		-12.8327		6.6102e-002
 662		6.5207e+001	-11.7655		-12.8706		6.6446e-002
 663		6.5305e+001	-11.8266		-12.8931		6.6805e-002
 664		6.5404e+001	-11.9016		-12.9305		6.7164e-002
 665		6.5502e+001	-11.9772		-12.9590		6.7523e-002
 666		6.5601e+001	-12.0536		-12.9840		6.7841e-002
 667		6.5700e+001	-12.1397		-13.0163		6.8252e-002
 668		6.5798e+001	-12.2091		-13.0469		6.8473e-002
 669		6.5897e+001	-12.2917		-13.0767		6.9351e-002
 670		6.5995e+001	-12.3750		-13.1060		6.9198e-002
 671		6.6094e+001	-12.4458		-13.1332		6.9538e-002
 672		6.6192e+001	-12.5298		-13.1599		7.0095e-002
 673		6.6290e+001	-12.6020		-13.1914		7.0207e-002
 674		6.6389e+001	-12.6853		-13.2160		7.0518e-002
 675		6.6487e+001	-12.7534		-13.2424		7.0888e-002
 676		6.6586e+001	-12.8374		-13.2747		7.1093e-002
 677		6.6685e+001	-12.9082		-13.2997		7.1523e-002
 678		6.6783e+001	-12.9957		-13.3257		7.1856e-002
 679		6.6882e+001	-13.0797		-13.3520		7.2181e-002
 680		6.6980e+001	-13.1630		-13.3771		7.2570e-002
 681		6.7079e+001	-13.2282		-13.4022		7.2854e-002
 682		6.7177e+001	-13.3219		-13.4345		7.3220e-002
 683		6.7275e+001	-13.3809		-13.4561		7.3407e-002
 684		6.7374e+001	-13.4809		-13.4761		7.4252e-002
 685		6.7472e+001	-13.5462		-13.5071		7.4043e-002
 686		6.7571e+001	-13.6128		-13.5313		7.4364e-002
 687		6.7669e+001	-13.6954		-13.5539		7.4727e-002
 688		6.7768e+001	-13.7739		-13.5789		7.5026e-002
 689		6.7867e+001	-13.8600		-13.6053		7.5295e-002
 690		6.7965e+001	-13.9294		-13.6286		7.5591e-002
 691		6.8064e+001	-14.0134		-13.6567		7.5856e-002
 692		6.8162e+001	-14.0988		-13.6741		7.6200e-002
 693		6.8260e+001	-14.1696		-13.6988		7.6435e-002
 694		6.8359e+001	-14.2452		-13.7272		7.6783e-002
 695		6.8457e+001	-14.3320		-13.7459		7.7198e-002
 696		6.8556e+001	-14.4007		-13.7684		7.7419e-002
 697		6.8654e+001	-14.4799		-13.7948		7.7624e-002
 698		6.8753e+001	-14.5556		-13.8165		7.7871e-002
 699		6.8852e+001	-14.6472		-13.8364		7.8286e-002
 700		6.8950e+001	-14.7242		-13.8615		7.8514e-002
 701		6.9049e+001	-14.7867		-13.8857		7.8880e-002
 702		6.9147e+001	-14.8777		-13.9032		7.9168e-002
 703		6.9246e+001	-14.9610		-13.9223		7.9411e-002
 704		6.9344e+001	-15.0408		-13.9448		7.9561e-002
 705		6.9442e+001	-15.0963		-13.9733		8.0058e-002
 706		6.9541e+001	-15.1894		-13.9890		7.9942e-002
 707		6.9639e+001	-15.2678		-14.0158		8.0477e-002
 708		6.9738e+001	-15.3581		-14.0323		8.0776e-002
 709		6.9837e+001	-15.4289		-14.0506		8.1105e-002
 710		6.9935e+001	-15.5052		-14.0701		8.1385e-002
 711		7.0034e+001	-15.5795		-14.0918		8.1546e-002
 712		7.0132e+001	-15.6566		-14.1143		8.1815e-002
 713		7.0231e+001	-15.7288		-14.1335		8.1864e-002
 714		7.0329e+001	-15.8142		-14.1581		8.2473e-002
 715		7.0427e+001	-15.8989		-14.1789		8.2701e-002
 716		7.0526e+001	-15.9711		-14.1951		8.2970e-002
 717		7.0624e+001	-16.0551		-14.2134		8.3228e-002
 718		7.0723e+001	-16.1377		-14.2274		8.3557e-002
 719		7.0822e+001	-16.2154		-14.2490		8.3849e-002
 720		7.0920e+001	-16.2821		-14.2754		8.3778e-002
 721		7.1019e+001	-16.3522		-14.2907		8.4301e-002
 722		7.1117e+001	-16.4417		-14.3030		8.4581e-002
 723		7.1216e+001	-16.5285		-14.3294		8.4832e-002
 724		7.1314e+001	-16.6104		-14.3442		8.5138e-002
 725		7.1412e+001	-16.6785		-14.3689		8.5374e-002
 726		7.1511e+001	-16.7680		-14.3846		8.5464e-002
 727		7.1609e+001	-16.8235		-14.4024		8.5938e-002
 728		7.1708e+001	-16.9180		-14.4190		8.6032e-002
 729		7.1807e+001	-17.0033		-14.4403		8.6395e-002
 730		7.1905e+001	-17.0832		-14.4615		8.6727e-002
 731		7.2004e+001	-17.1533		-14.4815		8.6802e-002
 732		7.2102e+001	-17.2345		-14.4972		8.7161e-002
 733		7.2201e+001	-17.3185		-14.5112		8.7254e-002
 734		7.2299e+001	-17.4025		-14.5304		8.7486e-002
 735		7.2397e+001	-17.4497		-14.5524		8.7471e-002
 736		7.2496e+001	-17.5483		-14.5694		8.8167e-002
 737		7.2594e+001	-17.6261		-14.5847		8.8387e-002
 738		7.2693e+001	-17.7087		-14.6034		8.8690e-002
 739		7.2791e+001	-17.7913		-14.6179		8.8888e-002
 740		7.2890e+001	-17.8718		-14.6328		8.9071e-002
 741		7.2989e+001	-17.9384		-14.6481		8.9344e-002
 742		7.3087e+001	-18.0169		-14.6646		8.9404e-002
 743		7.3186e+001	-18.0981		-14.6829		8.9737e-002
 744		7.3284e+001	-18.1773		-14.6995		9.0013e-002
 745		7.3382e+001	-18.2606		-14.7135		9.0327e-002
 746		7.3481e+001	-18.3237		-14.7322		9.0458e-002
 747		7.3579e+001	-18.4237		-14.7483		9.0686e-002
 748		7.3678e+001	-18.4973		-14.7632		9.1000e-002
 749		7.3776e+001	-18.5792		-14.7785		9.1195e-002
 750		7.3875e+001	-18.6216		-14.7976		9.1221e-002
 751		7.3974e+001	-18.7305		-14.8112		9.1658e-002
 752		7.4072e+001	-18.8111		-14.8299		9.1811e-002
 753		7.4171e+001	-18.8812		-14.8401		9.2215e-002
 754		7.4269e+001	-18.9694		-14.8580		9.2331e-002
 755		7.4368e+001	-19.0457		-14.8745		9.2611e-002
 756		7.4466e+001	-19.1165		-14.8886		9.2783e-002
 757		7.4564e+001	-19.1783		-14.9064		9.2660e-002
 758		7.4663e+001	-19.2804		-14.9247		9.3314e-002
 759		7.4761e+001	-19.3630		-14.9340		9.3527e-002
 760		7.4860e+001	-19.4359		-14.9472		9.3793e-002
 761		7.4959e+001	-19.5122		-14.9685		9.4129e-002
 762		7.5057e+001	-19.5983		-14.9880		9.4208e-002
 763		7.5156e+001	-19.6650		-14.9884		9.4469e-002
 764		7.5254e+001	-19.7059		-15.0067		9.4671e-002
 765		7.5353e+001	-19.6955		-15.0071		9.4776e-002
 766		7.5451e+001	-19.7052		-15.0105		9.5094e-002
 767		7.5549e+001	-19.6698		-15.0101		9.5176e-002
 768		7.5648e+001	-19.6538		-15.0084		9.5456e-002
 769		7.5746e+001	-19.5955		-15.0050		9.5569e-002
 770		7.5845e+001	-19.5629		-14.9978		9.5640e-002
 771		7.5944e+001	-19.5171		-14.9918		9.5838e-002
 772		7.6042e+001	-19.4713		-14.9795		9.5628e-002
 773		7.6141e+001	-19.3887		-14.9757		9.6051e-002
 774		7.6239e+001	-19.3435		-14.9710		9.5942e-002
 775		7.6338e+001	-19.2720		-14.9659		9.6234e-002
 776		7.6436e+001	-19.1998		-14.9493		9.6305e-002
 777		7.6534e+001	-19.1249		-14.9476		9.6219e-002
 778		7.6633e+001	-19.0478		-14.9362		9.6260e-002
 779		7.6731e+001	-18.9888		-14.9217		9.6253e-002
 780		7.6830e+001	-18.9346		-14.9132		9.6402e-002
 781		7.6929e+001	-18.8444		-14.9056		9.6316e-002
 782		7.7027e+001	-18.7743		-14.8928		9.6395e-002
 783		7.7126e+001	-18.6944		-14.8788		9.6316e-002
 784		7.7224e+001	-18.6146		-14.8648		9.6320e-002
 785		7.7323e+001	-18.5362		-14.8626		9.6268e-002
 786		7.7421e+001	-18.4626		-14.8474		9.6245e-002
 787		7.7519e+001	-18.4029		-14.8329		9.6241e-002
 788		7.7618e+001	-18.3112		-14.8202		9.6013e-002
 789		7.7716e+001	-18.2363		-14.8146		9.5957e-002
 790		7.7815e+001	-18.1578		-14.7981		9.5984e-002
 791		7.7913e+001	-18.0863		-14.7896		9.5826e-002
 792		7.8012e+001	-18.0120		-14.7806		9.5673e-002
 793		7.8111e+001	-17.9079		-14.7636		9.5658e-002
 794		7.8209e+001	-17.8697		-14.7513		9.5980e-002
 795		7.8308e+001	-17.7670		-14.7428		9.5423e-002
 796		7.8406e+001	-17.6948		-14.7250		9.5292e-002
 797		7.8504e+001	-17.6038		-14.7122		9.5213e-002
 798		7.8603e+001	-17.5268		-14.7020		9.5079e-002
 799		7.8701e+001	-17.4525		-14.6969		9.4851e-002
 800		7.8800e+001	-17.3831		-14.6706		9.4776e-002
 801		7.8898e+001	-17.2845		-14.6604		9.4802e-002
 802		7.8997e+001	-17.2192		-14.6430		9.4496e-002
 803		7.9096e+001	-17.1366		-14.6328		9.4357e-002
 804		7.9194e+001	-17.0582		-14.6179		9.4223e-002
 805		7.9293e+001	-16.9749		-14.6030		9.4137e-002
 806		7.9391e+001	-16.8985		-14.5915		9.3924e-002
 807		7.9490e+001	-16.8076		-14.5775		9.3636e-002
 808		7.9588e+001	-16.7479		-14.5631		9.3456e-002
 809		7.9686e+001	-16.6569		-14.5503		9.3393e-002
 810		7.9785e+001	-16.5847		-14.5316		9.3273e-002
 811		7.9883e+001	-16.5014		-14.5219		9.3086e-002
 812		7.9982e+001	-16.4209		-14.5066		9.2940e-002
 813		8.0081e+001	-16.3404		-14.4913		9.2709e-002
 814		8.0179e+001	-16.2689		-14.4781		9.2525e-002
 815		8.0278e+001	-16.1897		-14.4615		9.2256e-002
 816		8.0376e+001	-16.1182		-14.4471		9.2282e-002
 817		8.0475e+001	-16.0314		-14.4347		9.1980e-002
 818		8.0573e+001	-15.9551		-14.4165		9.1894e-002
 819		8.0671e+001	-15.8725		-14.4003		9.1595e-002
 820		8.0770e+001	-15.7982		-14.3846		9.1512e-002
 821		8.0868e+001	-15.7121		-14.3710		9.1348e-002
 822		8.0967e+001	-15.6469		-14.3553		9.1097e-002
 823		8.1066e+001	-15.5573		-14.3357		9.0783e-002
 824		8.1164e+001	-15.4851		-14.3289		9.0720e-002
 825		8.1263e+001	-15.4025		-14.3060		9.0514e-002
 826		8.1361e+001	-15.3240		-14.2928		9.0357e-002
 827		8.1460e+001	-15.2512		-14.2801		9.0137e-002
 828		8.1558e+001	-15.1644		-14.2626		8.9946e-002
 829		8.1656e+001	-15.0901		-14.2418		8.9853e-002
 830		8.1755e+001	-15.0144		-14.2299		8.9561e-002
 831		8.1853e+001	-14.9214		-14.2108		8.9310e-002
 832		8.1952e+001	-14.8610		-14.1968		8.9086e-002
 833		8.2051e+001	-14.7652		-14.1802		8.8996e-002
 834		8.2149e+001	-14.6902		-14.1615		8.8716e-002
 835		8.2248e+001	-14.6194		-14.1500		8.8518e-002
 836		8.2346e+001	-14.5472		-14.1296		8.8260e-002
 837		8.2445e+001	-14.4389		-14.1148		8.7841e-002
 838		8.2543e+001	-14.3966		-14.0952		8.7789e-002
 839		8.2641e+001	-14.2904		-14.0778		8.7520e-002
 840		8.2740e+001	-14.2244		-14.0600		8.7535e-002
 841		8.2838e+001	-14.1390		-14.0455		8.7187e-002
 842		8.2937e+001	-14.0620		-14.0234		8.7030e-002
 843		8.3035e+001	-13.9898		-14.0090		8.6686e-002
 844		8.3134e+001	-13.9224		-13.9886		8.6432e-002
 845		8.3233e+001	-13.8287		-13.9669		8.6331e-002
 846		8.3331e+001	-13.7510		-13.9503		8.6077e-002
 847		8.3430e+001	-13.6739		-13.9329		8.5950e-002
 848		8.3528e+001	-13.6017		-13.9116		8.5699e-002
 849		8.3626e+001	-13.5128		-13.8972		8.5366e-002
 850		8.3725e+001	-13.4379		-13.8755		8.5258e-002
 851		8.3823e+001	-13.3643		-13.8607		8.4955e-002
 852		8.3922e+001	-13.2858		-13.8398		8.4794e-002
 853		8.4020e+001	-13.2060		-13.8211		8.4622e-002
 854		8.4119e+001	-13.1310		-13.8003		8.4342e-002
 855		8.4218e+001	-13.0581		-13.7782		8.4137e-002
 856		8.4316e+001	-12.9609		-13.7595		8.3894e-002
 857		8.4415e+001	-12.8867		-13.7455		8.3658e-002
 858		8.4513e+001	-12.8131		-13.7255		8.3378e-002
 859		8.4612e+001	-12.7284		-13.7005		8.2731e-002
 860		8.4710e+001	-12.6472		-13.6792		8.2895e-002
 861		8.4808e+001	-12.5784		-13.6631		8.2742e-002
 862		8.4907e+001	-12.5083		-13.6410		8.2514e-002
 863		8.5005e+001	-12.4188		-13.6227		8.2256e-002
 864		8.5104e+001	-12.3341		-13.5929		8.1976e-002
 865		8.5203e+001	-12.2480		-13.5785		8.1721e-002
 866		8.5301e+001	-12.1855		-13.5577		8.1258e-002
 867		8.5400e+001	-12.1008		-13.5369		8.1213e-002
 868		8.5498e+001	-12.0286		-13.5084		8.1045e-002
 869		8.5597e+001	-11.9481		-13.4893		8.0742e-002
 870		8.5695e+001	-11.8648		-13.4714		8.0536e-002
 871		8.5793e+001	-11.7961		-13.4476		8.0222e-002
 872		8.5892e+001	-11.7211		-13.4226		8.0035e-002
 873		8.5990e+001	-11.6218		-13.4039		7.9669e-002
 874		8.6089e+001	-11.5753		-13.3835		7.9546e-002
 875		8.6188e+001	-11.4837		-13.3516		7.9254e-002
 876		8.6286e+001	-11.4045		-13.3346		7.8925e-002
 877		8.6385e+001	-11.3150		-13.3146		7.8749e-002
 878		8.6483e+001	-11.2379		-13.2895		7.8506e-002
 879		8.6582e+001	-11.1602		-13.2649		7.8305e-002
 880		8.6680e+001	-11.0845		-13.2420		7.8006e-002
 881		8.6778e+001	-11.0165		-13.2156		7.7650e-002
 882		8.6877e+001	-10.9269		-13.1931		7.7441e-002
 883		8.6975e+001	-10.8561		-13.1655		7.7191e-002
 884		8.7074e+001	-10.7721		-13.1493		7.6817e-002
 885		8.7172e+001	-10.6860		-13.1196		7.6592e-002
 886		8.7271e+001	-10.6215		-13.0958		7.6301e-002
 887		8.7370e+001	-10.5354		-13.0618		7.5953e-002
 888		8.7468e+001	-10.4410		-13.0393		7.5172e-002
 889		8.7567e+001	-10.3771		-13.0146		7.5482e-002
 890		8.7665e+001	-10.2966		-12.9904		7.5273e-002
 891		8.7763e+001	-10.2119		-12.9636		7.4918e-002
 892		8.7862e+001	-10.1383		-12.9394		7.4682e-002
 893		8.7960e+001	-10.0633		-12.9105		7.4368e-002
 894		8.8059e+001	-9.9751		-12.8846		7.4024e-002
 895		8.8157e+001	-9.8939		-12.8582		7.3265e-002
 896		8.8256e+001	-9.8328		-12.8310		7.3490e-002
 897		8.8355e+001	-9.7294		-12.8043		7.3250e-002
 898		8.8453e+001	-9.6711		-12.7771		7.2966e-002
 899		8.8552e+001	-9.5892		-12.7490		7.2719e-002
 900		8.8650e+001	-9.5149		-12.7231		7.2334e-002
 901		8.8749e+001	-9.4281		-12.6938		7.2013e-002
 902		8.8847e+001	-9.3594		-12.6611		7.1504e-002
 903		8.8945e+001	-9.2754		-12.6279		7.1478e-002
 904		8.9044e+001	-9.2066		-12.5990		7.1179e-002
 905		8.9142e+001	-9.1122		-12.5727		7.0932e-002
 906		8.9241e+001	-9.0386		-12.5442		7.0697e-002
 907		8.9340e+001	-8.9671		-12.5187		7.0233e-002
 908		8.9438e+001	-8.8894		-12.4826		6.9946e-002
 909		8.9537e+001	-8.8054		-12.4435		6.9774e-002
 910		8.9635e+001	-8.7290		-12.4172		6.9340e-002
 911		8.9734e+001	-8.6471		-12.3878		6.9243e-002
 912		8.9832e+001	-8.5728		-12.3547		6.8802e-002
 913		8.9930e+001	-8.4937		-12.3254		6.8503e-002
 914		9.0029e+001	-8.4118		-12.2956		6.8084e-002
 915		9.0127e+001	-8.3430		-12.2625		6.7777e-002
 916		9.0226e+001	-8.2521		-12.2268		6.7411e-002
 917		9.0325e+001	-8.1702		-12.1936		6.7145e-002
 918		9.0423e+001	-8.0987		-12.1597		6.6891e-002
 919		9.0522e+001	-8.0188		-12.1261		6.6581e-002
 920		9.0620e+001	-7.9439		-12.0925		6.6200e-002
 921		9.0719e+001	-7.8675		-12.0538		6.5886e-002
 922		9.0817e+001	-7.7835		-12.0169		6.5594e-002
 923		9.0915e+001	-7.7169		-11.9880		6.5239e-002
 924		9.1014e+001	-7.6315		-11.9531		6.4850e-002
 925		9.1112e+001	-7.5419		-11.9085		6.4596e-002
 926		9.1211e+001	-7.4607		-11.8732		6.4173e-002
 927		9.1310e+001	-7.3871		-11.8346		6.3904e-002
 928		9.1408e+001	-7.3094		-11.8023		6.3463e-002
 929		9.1507e+001	-7.2399		-11.7640		6.3366e-002
 930		9.1605e+001	-7.1622		-11.7317		6.2843e-002
 931		9.1704e+001	-7.0935		-11.6825		6.2375e-002
 932		9.1802e+001	-7.0025		-11.6506		6.2293e-002
 933		9.1900e+001	-6.9157		-11.6060		6.1807e-002
 934		9.1999e+001	-6.8324		-11.5694		6.1358e-002
 935		9.2097e+001	-6.7616		-11.5257		6.0943e-002
 936		9.2196e+001	-6.6846		-11.4844		6.0846e-002
 937		9.2294e+001	-6.6033		-11.4445		6.0379e-002
 938		9.2393e+001	-6.5395		-11.4003		5.9979e-002
 939		9.2492e+001	-6.4499		-11.3629		5.9628e-002
 940		9.2590e+001	-6.3819		-11.3149		5.9239e-002
 941		9.2689e+001	-6.2854		-11.2783		5.8798e-002
 942		9.2787e+001	-6.2257		-11.2282		5.8394e-002
 943		9.2885e+001	-6.1278		-11.1870		5.7998e-002
 944		9.2984e+001	-6.0598		-11.1402		5.7571e-002
 945		9.3082e+001	-5.9681		-11.0931		5.7467e-002
 946		9.3181e+001	-5.8953		-11.0480		5.6884e-002
 947		9.3279e+001	-5.8161		-11.0004		5.6484e-002
 948		9.3378e+001	-5.7446		-10.9460		5.6203e-002
 949		9.3477e+001	-5.6606		-10.9070		5.5609e-002
 950		9.3575e+001	-5.5738		-10.8509		5.5254e-002
 951		9.3674e+001	-5.5148		-10.8028		5.4566e-002
 952		9.3772e+001	-5.4162		-10.7582		5.4543e-002
 953		9.3871e+001	-5.3281		-10.7026		5.4128e-002
 954		9.3969e+001	-5.2587		-10.6592		5.3669e-002
 955		9.4067e+001	-5.1649		-10.5989		5.3321e-002
 956		9.4166e+001	-5.1143		-10.5504		5.2876e-002
 957		9.4264e+001	-5.0094		-10.5037		5.2439e-002
 958		9.4363e+001	-4.9539		-10.4400		5.1997e-002
 959		9.4462e+001	-4.8664		-10.3915		5.1624e-002
 960		9.4560e+001	-4.7970		-10.3367		5.1205e-002
 961		9.4659e+001	-4.6943		-10.2742		5.0685e-002
 962		9.4757e+001	-4.6297		-10.2271		5.0311e-002
 963		9.4856e+001	-4.5561		-10.1671		4.9949e-002
 964		9.4954e+001	-4.4707		-10.1051		4.9399e-002
 965		9.5052e+001	-4.3902		-10.0465		4.8895e-002
 966		9.5151e+001	-4.3499		-9.9823		4.8618e-002
 967		9.5249e+001	-4.2437		-9.9249		4.8192e-002
 968		9.5348e+001	-4.1694		-9.8646		4.7657e-002
 969		9.5447e+001	-4.0743		-9.8055		4.7171e-002
 970		9.5545e+001	-4.0001		-9.7371		4.6756e-002
 971		9.5644e+001	-3.9265		-9.6751		4.6349e-002
 972		9.5742e+001	-3.8432		-9.6075		4.5743e-002
 973		9.5841e+001	-3.7855		-9.5408		4.5605e-002
 974		9.5939e+001	-3.6793		-9.4741		4.4790e-002
 975		9.6037e+001	-3.5995		-9.4108		4.4513e-002
 976		9.6136e+001	-3.5301		-9.3419		4.3945e-002
 977		9.6234e+001	-3.4412		-9.2735		4.3347e-002
 978		9.6333e+001	-3.3780		-9.2000		4.2842e-002
 979		9.6432e+001	-3.2920		-9.1273		4.2513e-002
 980		9.6530e+001	-3.2080		-9.0504		4.1571e-002
 981		9.6629e+001	-3.1358		-8.9765		4.1433e-002
 982		9.6727e+001	-3.0622		-8.9017		4.0973e-002
 983		9.6826e+001	-2.9816		-8.8316		4.0547e-002
 984		9.6924e+001	-2.9164		-8.7445		4.0061e-002
 985		9.7022e+001	-2.8157		-8.6671		3.9403e-002
 986		9.7121e+001	-2.7449		-8.5894		3.8988e-002
 987		9.7219e+001	-2.6873		-8.5061		3.8270e-002
 988		9.7318e+001	-2.6019		-8.4215		3.7881e-002
 989		9.7416e+001	-2.5103		-8.3293		3.7406e-002
 990		9.7515e+001	-2.4290		-8.2439		3.6891e-002
 991		9.7614e+001	-2.3562		-8.1538		3.6408e-002
 992		9.7712e+001	-2.2708		-8.0684		3.5739e-002
 993		9.7811e+001	-2.1861		-7.9758		3.5219e-002
 994		9.7909e+001	-2.1083		-7.8853		3.4375e-002
 995		9.8007e+001	-2.0479		-7.7867		3.4188e-002
 996		9.8106e+001	-1.9667		-7.6872		3.3702e-002
 997		9.8204e+001	-1.8695		-7.5912		3.3085e-002
 998		9.8303e+001	-1.8050		-7.4892		3.2591e-002
 999		9.8401e+001	-1.7196		-7.3881		3.1986e-002
1000		9.8500e+001	-1.6390		-7.2819		3.1391e-002
1001		9.8599e+001	-1.5599		-7.1760		3.0864e-002
1002		9.8697e+001	-1.4974		-7.0630		3.0315e-002
1003		9.8796e+001	-1.4065		-6.9555		2.9698e-002
1004		9.8894e+001	-1.3412		-6.8446		2.9234e-002
1005		9.8993e+001	-1.2572		-6.7277		2.8640e-002
1006		9.9091e+001	-1.1802		-6.6054		2.8128e-002
1007		9.9189e+001	-1.0920		-6.4834		2.7500e-002
1008		9.9288e+001	-1.0177		-6.3585		2.6804e-002
1009		9.9386e+001	-0.9365		-6.2310		2.6356e-002
1010		9.9485e+001	-0.8622		-6.0980		2.5769e-002
1011		9.9584e+001	-0.7796		-5.9697		2.5227e-002
1012		9.9682e+001	-0.7150		-5.8324		2.4681e-002
1013		9.9781e+001	-0.6241		-5.6892		2.4195e-002
1014		9.9879e+001	-0.5498		-5.5511		2.3485e-002
1015		9.9978e+001	-0.4693		-5.4066		2.2928e-002
1016		1.0008e+002	-0.4040		-5.2524		2.2329e-002
1017		1.0017e+002	-0.3061		-5.1024		2.1870e-002

PMax (µC/cm2):		1.50e+001
Pr (µC/cm2):		4.51e+000
-Pr (µC/cm2):		-5.10e+000
Vc:			2.05e+002
-Vc:			-1.79e+002
C (Max-Eff) (nF):	6.45e+000
Vert. Eccentricity (µC/cm2):	-2.96e-001

Horiz. Eccentricity (Volts):	1.29e+001

Offset (µC/cm2):	3.18e+000



Hysteresis Version: 4.6.11 - Radiant Technologies, Inc., 1999 - 12/12/11

