»»»»»»»»»»»»»»»»»»»»»»»»»»»»»»»»»»»» Hysteresis ««««««««««««««««««««««««««««««««««««
»»»  Version:			4.6.11
»»»  Vision Version:		4.6.5 (R)
»»»  Vision Compiled:		7 December 2011
»»»  Driver Version:		4.6.17
»»»  Tester Name:		PPM21211-813
»»»  Tester S/N:		PPM21211-813                    
»»»  Internal Amp Type:		No Internal Amp
»»»  Internal Amp S/N:		100000
»»»  Execution Count:		0
»»»»»»»»»»»»»»»»»»»»»»»»»»»»»»»»»»»»»»»»»»««««««««««««««««««««««««««««««««««««««««««

Stored:				1/16/2024 - 18:1:56
Configured:			01/16/24 05:44:31 PM
Executed:			01/16/24 06:01:23 PM

»»»»»»»»»»»»»»»»»»»»»»»»»»»»»»»»»»» Sample Info ««««««««««««««««««««««««««««««««««««
Sample Name:			
Lot Name:			
Wafer Name:			
Die Row/Column:			0/0
Capacitor Number:		0
Sample Area (cm2):		9.46e-001
Sample Thickness (µm):		1.14e+003

Mux Loop Adjustment:		Disabled

Amplifier:			High Voltage (HVA)
HVI Channel/Port:		1/1
Drive Gain Factor:			1000.00r
Drive Voltage Limit:			4000.00r

»»»»»»»»»»»»»»»»»»»»»»»»»»»»»»»»»»» Tester Info «««««««««««««««««««««««««««««««««««
Tester Name:			PPM21211-813
Tester Serial Number:		PPM21211-813                    
Return Signal Amp. Level:	0.00019

»»»»»»»»»»»»»»»»»»»»»»»»»»»»»»»» Hysteresis Info ««««««««««««««««««««««««««««««««««
Task Name:			Hyst-2
Volts:				2272.00
Field:				20.00 (kV/cm)
Hysteresis Period (ms):		1.00e+002
Preset:				Enabled
Preset Delay (ms):		1.00e+002
Profile:			Standard Bipolar

Sensor Offset:			0.00  
Sensor Scale:			-0.05 
Sensor Impedance (Ohms):	50
Sensor Label:			%

»»»»»»»»»»»»»»»»»»»»»»»»»»»»»»»»»»»»»» Data «««««««««««««««««««««««««««««««««««««««
Points:				1017

Valid Data

Point		Time (ms)	Field (kV/cm)	Measured Polarization	Sensor
   1		9.8500e-002	-0.0154		-5.3064		-6.1780e-003
   2		1.9700e-001	0.0074		-5.3000		-6.3940e-003
   3		2.9550e-001	0.0450		-5.2932		-6.2476e-003
   4		3.9400e-001	0.0860		-5.2737		-6.0425e-003
   5		4.9250e-001	0.1410		-5.2580		-6.2842e-003
   6		5.9100e-001	0.1887		-5.2338		-6.2878e-003
   7		6.8950e-001	0.2418		-5.2037		-6.3025e-003
   8		7.8800e-001	0.2948		-5.1604		-6.3354e-003
   9		8.8650e-001	0.3701		-5.1083		-6.3538e-003
  10		9.8500e-001	0.4426		-5.0451		-6.4087e-003
  11		1.0835e+000	0.5138		-4.9725		-6.5881e-003
  12		1.1820e+000	0.5917		-4.8826		-6.5295e-003
  13		1.2805e+000	0.6629		-4.7795		-6.6907e-003
  14		1.3790e+000	0.7273		-4.6625		-6.8079e-003
  15		1.4775e+000	0.8046		-4.5390		-6.8884e-003
  16		1.5760e+000	0.8751		-4.3986		-7.0313e-003
  17		1.6745e+000	0.9705		-4.2417		-7.1924e-003
  18		1.7730e+000	1.0390		-4.0729		-7.4524e-003
  19		1.8715e+000	1.1149		-3.8917		-7.7637e-003
  20		1.9700e+000	1.1907		-3.6873		-7.8186e-003
  21		2.0685e+000	1.2579		-3.4752		-8.0383e-003
  22		2.1670e+000	1.3385		-3.2347		-8.2031e-003
  23		2.2655e+000	1.4151		-3.0035		-8.4192e-003
  24		2.3640e+000	1.4950		-2.7359		-8.7231e-003
  25		2.4625e+000	1.5789		-2.4610		-8.8586e-003
  26		2.5610e+000	1.6568		-2.1569		-8.9941e-003
  27		2.6595e+000	1.7314		-1.8464		-9.2944e-003
  28		2.7580e+000	1.8133		-1.5058		-9.5581e-003
  29		2.8565e+000	1.8946		-1.1588		-9.7595e-003
  30		2.9550e+000	1.9617		-0.7962		-9.9646e-003
  31		3.0535e+000	2.0511		-0.4199		-1.0148e-002
  32		3.1520e+000	2.1189		-0.0407		-1.0126e-002
  33		3.2505e+000	2.2170		0.3338		-1.0426e-002
  34		3.3490e+000	2.3076		0.7126		-1.0155e-002
  35		3.4475e+000	2.3721		1.0799		-1.0492e-002
  36		3.5460e+000	2.4399		1.4439		-1.0510e-002
  37		3.6445e+000	2.5286		1.7964		-1.0525e-002
  38		3.7430e+000	2.6011		2.1378		-1.0452e-002
  39		3.8415e+000	2.6730		2.4636		-1.0389e-002
  40		3.9400e+000	2.7576		2.7813		-1.0316e-002
  41		4.0385e+000	2.8483		3.0888		-1.0056e-002
  42		4.1370e+000	2.9154		3.3836		-9.9500e-003
  43		4.2355e+000	2.9819		3.6686		-9.6936e-003
  44		4.3340e+000	3.0692		3.9388		-9.3713e-003
  45		4.4325e+000	3.1505		4.2014		-9.0857e-003
  46		4.5310e+000	3.2197		4.4572		-8.7268e-003
  47		4.6295e+000	3.3090		4.7053		-8.2983e-003
  48		4.7280e+000	3.3728		4.9301		-7.9504e-003
  49		4.8265e+000	3.4608		5.1681		-7.4854e-003
  50		4.9250e+000	3.5508		5.3802		-7.2327e-003
  51		5.0235e+000	3.6226		5.5952		-7.0093e-003
  52		5.1220e+000	3.6931		5.7984		-6.1450e-003
  53		5.2205e+000	3.7764		5.9952		-5.6287e-003
  54		5.3190e+000	3.8469		6.1954		-4.9695e-003
  55		5.4175e+000	3.9242		6.3842		-4.5703e-003
  56		5.5160e+000	4.0081		6.5585		-4.0320e-003
  57		5.6145e+000	4.0921		6.7328		-3.4900e-003
  58		5.7130e+000	4.1653		6.9093		-2.9150e-003
  59		5.8115e+000	4.2633		7.0700		-1.9153e-003
  60		5.9100e+000	4.3191		7.2266		-1.6992e-003
  61		6.0085e+000	4.4010		7.3856		-1.0730e-003
  62		6.1070e+000	4.4641		7.5311		-5.9692e-004
  63		6.2055e+000	4.5521		7.6842		1.5381e-004
  64		6.3040e+000	4.6294		7.8293		7.9102e-004
  65		6.4025e+000	4.7140		7.9633		1.3770e-003
  66		6.5010e+000	4.7966		8.0991		1.9556e-003
  67		6.5995e+000	4.8711		8.2259		2.6404e-003
  68		6.6980e+000	4.9497		8.3612		3.3728e-003
  69		6.7965e+000	5.0256		8.4791		3.9734e-003
  70		6.8950e+000	5.0995		8.5975		4.7498e-003
  71		6.9935e+000	5.1827		8.7179		5.2625e-003
  72		7.0920e+000	5.2721		8.8393		5.9436e-003
  73		7.1905e+000	5.3480		8.9529		6.5442e-003
  74		7.2890e+000	5.4272		9.0641		7.1741e-003
  75		7.3875e+000	5.5024		9.1705		7.7051e-003
  76		7.4860e+000	5.5850		9.2783		8.1226e-003
  77		7.5845e+000	5.6670		9.3792		9.1223e-003
  78		7.6830e+000	5.7415		9.4853		9.7668e-003
  79		7.7815e+000	5.8154		9.5756		1.0437e-002
  80		7.8800e+000	5.8846		9.6766		1.0961e-002
  81		7.9785e+000	5.9867		9.7652		1.1572e-002
  82		8.0770e+000	6.0599		9.8602		1.2169e-002
  83		8.1755e+000	6.1405		9.9463		1.2909e-002
  84		8.2740e+000	6.1949		10.0320		1.3667e-002
  85		8.3725e+000	6.3023		10.1215		1.4077e-002
  86		8.4710e+000	6.3755		10.1974		1.4674e-002
  87		8.5695e+000	6.4480		10.2882		1.5282e-002
  88		8.6680e+000	6.5246		10.3637		1.5879e-002
  89		8.7665e+000	6.6045		10.4422		1.6443e-002
  90		8.8650e+000	6.6777		10.5258		1.7102e-002
  91		8.9635e+000	6.7577		10.6013		1.7465e-002
  92		9.0620e+000	6.8315		10.6721		1.8054e-002
  93		9.1605e+000	6.9242		10.7417		1.8644e-002
  94		9.2590e+000	6.9847		10.8189		1.9255e-002
  95		9.3575e+000	7.0726		10.8859		1.9761e-002
  96		9.4560e+000	7.1445		10.9588		2.0361e-002
  97		9.5545e+000	7.2298		11.0191		2.1039e-002
  98		9.6530e+000	7.3084		11.0899		2.1306e-002
  99		9.7515e+000	7.3883		11.1506		2.1980e-002
 100		9.8500e+000	7.4481		11.2167		2.2950e-002
 101		9.9485e+000	7.5515		11.2808		2.2961e-002
 102		1.0047e+001	7.6200		11.3431		2.3452e-002
 103		1.0146e+001	7.7046		11.3970		2.4020e-002
 104		1.0244e+001	7.7792		11.4568		2.4540e-002
 105		1.0342e+001	7.8678		11.5200		2.4818e-002
 106		1.0441e+001	7.9309		11.5734		2.5331e-002
 107		1.0540e+001	8.0236		11.6282		2.5844e-002
 108		1.0638e+001	8.0861		11.6884		2.6378e-002
 109		1.0736e+001	8.1620		11.7380		2.6766e-002
 110		1.0835e+001	8.2520		11.7970		2.7272e-002
 111		1.0934e+001	8.3272		11.8453		2.7770e-002
 112		1.1032e+001	8.3937		11.8950		2.8154e-002
 113		1.1131e+001	8.4890		11.9459		2.8568e-002
 114		1.1229e+001	8.5609		11.9972		2.8978e-002
 115		1.1328e+001	8.6469		12.0494		2.9268e-002
 116		1.1426e+001	8.7120		12.0977		2.9883e-002
 117		1.1525e+001	8.7946		12.1431		3.0326e-002
 118		1.1623e+001	8.8792		12.1974		3.0626e-002
 119		1.1722e+001	8.9518		12.2394		3.1051e-002
 120		1.1820e+001	9.0283		12.2856		3.1487e-002
 121		1.1919e+001	9.0955		12.3268		3.1831e-002
 122		1.2017e+001	9.1909		12.3764		3.2197e-002
 123		1.2116e+001	9.2694		12.4226		3.2494e-002
 124		1.2214e+001	9.3561		12.4646		3.2860e-002
 125		1.2313e+001	9.4206		12.5083		3.3259e-002
 126		1.2411e+001	9.4958		12.5495		3.3607e-002
 127		1.2509e+001	9.5925		12.5940		3.3966e-002
 128		1.2608e+001	9.6590		12.6334		3.4384e-002
 129		1.2707e+001	9.7416		12.6737		3.4746e-002
 130		1.2805e+001	9.8114		12.7162		3.5109e-002
 131		1.2903e+001	9.8987		12.7535		3.5409e-002
 132		1.3002e+001	9.9672		12.7946		3.5823e-002
 133		1.3101e+001	10.0384		12.8332		3.6167e-002
 134		1.3199e+001	10.1177		12.8701		3.6504e-002
 135		1.3297e+001	10.2117		12.9075		3.6779e-002
 136		1.3396e+001	10.2822		12.9465		3.7104e-002
 137		1.3495e+001	10.3668		12.9838		3.7434e-002
 138		1.3593e+001	10.4427		13.0207		3.7690e-002
 139		1.3692e+001	10.5240		13.0542		3.7976e-002
 140		1.3790e+001	10.5972		13.0924		3.8350e-002
 141		1.3889e+001	10.6845		13.1276		3.8632e-002
 142		1.3987e+001	10.7826		13.1577		3.8756e-002
 143		1.4086e+001	10.8323		13.1908		3.9155e-002
 144		1.4184e+001	10.9021		13.2264		3.9584e-002
 145		1.4283e+001	10.9961		13.2599		3.9818e-002
 146		1.4381e+001	11.0667		13.2930		4.0074e-002
 147		1.4480e+001	11.1419		13.3278		4.0430e-002
 148		1.4578e+001	11.2164		13.3583		4.0627e-002
 149		1.4677e+001	11.3131		13.3914		4.0990e-002
 150		1.4775e+001	11.3749		13.4211		4.1268e-002
 151		1.4874e+001	11.4575		13.4538		4.1503e-002
 152		1.4972e+001	11.5428		13.4860		4.1843e-002
 153		1.5070e+001	11.6234		13.5153		4.2052e-002
 154		1.5169e+001	11.6845		13.5441		4.2345e-002
 155		1.5268e+001	11.7819		13.5721		4.2605e-002
 156		1.5366e+001	11.8518		13.6001		4.2799e-002
 157		1.5464e+001	11.9444		13.6311		4.3121e-002
 158		1.5563e+001	12.0116		13.6544		4.3293e-002
 159		1.5662e+001	12.0949		13.6858		4.3656e-002
 160		1.5760e+001	12.1580		13.7185		4.3850e-002
 161		1.5858e+001	12.2527		13.7490		4.4099e-002
 162		1.5957e+001	12.3299		13.7698		4.4326e-002
 163		1.6055e+001	12.4078		13.8037		4.4429e-002
 164		1.6154e+001	12.4804		13.8343		4.4817e-002
 165		1.6253e+001	12.5717		13.8546		4.5018e-002
 166		1.6351e+001	12.6416		13.8856		4.5238e-002
 167		1.6450e+001	12.7114		13.9093		4.5546e-002
 168		1.6548e+001	12.7860		13.9323		4.5703e-002
 169		1.6647e+001	12.8759		13.9679		4.5945e-002
 170		1.6745e+001	12.9438		13.9921		4.6238e-002
 171		1.6843e+001	13.0311		14.0175		4.6395e-002
 172		1.6942e+001	13.1003		14.0413		4.6578e-002
 173		1.7041e+001	13.2057		14.0697		4.6721e-002
 174		1.7139e+001	13.2621		14.0943		4.7142e-002
 175		1.7238e+001	13.3414		14.1142		4.7421e-002
 176		1.7336e+001	13.4246		14.1435		4.7600e-002
 177		1.7435e+001	13.4952		14.1651		4.7856e-002
 178		1.7533e+001	13.5818		14.1889		4.7985e-002
 179		1.7631e+001	13.6711		14.2122		4.8223e-002
 180		1.7730e+001	13.7282		14.2351		4.8644e-002
 181		1.7828e+001	13.8195		14.2572		4.8688e-002
 182		1.7927e+001	13.8914		14.2847		4.8860e-002
 183		1.8026e+001	13.9633		14.3081		4.9178e-002
 184		1.8124e+001	14.0539		14.3297		4.9373e-002
 185		1.8223e+001	14.1339		14.3547		4.9545e-002
 186		1.8321e+001	14.2071		14.3751		4.9801e-002
 187		1.8419e+001	14.2809		14.3933		4.9896e-002
 188		1.8518e+001	14.3756		14.4192		4.9948e-002
 189		1.8616e+001	14.4428		14.4408		5.0328e-002
 190		1.8715e+001	14.5207		14.4642		5.0563e-002
 191		1.8814e+001	14.5919		14.4888		5.0830e-002
 192		1.8912e+001	14.6671		14.5074		5.1002e-002
 193		1.9011e+001	14.7564		14.5291		5.1182e-002
 194		1.9109e+001	14.8350		14.5503		5.1306e-002
 195		1.9208e+001	14.9069		14.5672		5.1661e-002
 196		1.9306e+001	14.9828		14.5897		5.1779e-002
 197		1.9404e+001	15.0660		14.6092		5.1907e-002
 198		1.9503e+001	15.1426		14.6317		5.2192e-002
 199		1.9602e+001	15.2245		14.6529		5.2368e-002
 200		1.9700e+001	15.3058		14.6695		5.2595e-002
 201		1.9799e+001	15.3844		14.6924		5.2738e-002
 202		1.9897e+001	15.4596		14.7110		5.2947e-002
 203		1.9996e+001	15.5281		14.7322		5.3489e-002
 204		2.0094e+001	15.6181		14.7526		5.3361e-002
 205		2.0192e+001	15.6893		14.7700		5.3536e-002
 206		2.0291e+001	15.7699		14.7912		5.3745e-002
 207		2.0390e+001	15.8478		14.8073		5.3892e-002
 208		2.0488e+001	15.9270		14.8294		5.4023e-002
 209		2.0587e+001	16.0157		14.8535		5.4218e-002
 210		2.0685e+001	16.0822		14.8688		5.4434e-002
 211		2.0784e+001	16.1903		14.8883		5.4803e-002
 212		2.0882e+001	16.2413		14.9078		5.4833e-002
 213		2.0980e+001	16.3293		14.9240		5.5060e-002
 214		2.1079e+001	16.4045		14.9430		5.5214e-002
 215		2.1177e+001	16.4737		14.9600		5.5389e-002
 216		2.1276e+001	16.5671		14.9749		5.5543e-002
 217		2.1375e+001	16.6255		15.0020		5.5778e-002
 218		2.1473e+001	16.7296		15.0152		5.5917e-002
 219		2.1572e+001	16.8135		15.0338		5.6063e-002
 220		2.1670e+001	16.8941		15.0504		5.6287e-002
 221		2.1769e+001	16.9694		15.0690		5.6294e-002
 222		2.1867e+001	17.0392		15.0843		5.6528e-002
 223		2.1965e+001	17.1144		15.1063		5.6770e-002
 224		2.2064e+001	17.1896		15.1153		5.6949e-002
 225		2.2163e+001	17.2850		15.1403		5.7191e-002
 226		2.2261e+001	17.3481		15.1551		5.7198e-002
 227		2.2360e+001	17.4395		15.1674		5.7924e-002
 228		2.2458e+001	17.5134		15.1835		5.7568e-002
 229		2.2557e+001	17.5899		15.2052		5.7854e-002
 230		2.2655e+001	17.6692		15.2179		5.7924e-002
 231		2.2753e+001	17.7491		15.2366		5.8140e-002
 232		2.2852e+001	17.8223		15.2489		5.8330e-002
 233		2.2951e+001	17.9042		15.2671		5.8524e-002
 234		2.3049e+001	17.9768		15.2853		5.8531e-002
 235		2.3148e+001	18.0661		15.3002		5.8689e-002
 236		2.3246e+001	18.1339		15.3167		5.8923e-002
 237		2.3345e+001	18.2219		15.3333		5.9081e-002
 238		2.3443e+001	18.2877		15.3469		5.9227e-002
 239		2.3541e+001	18.3676		15.3630		5.9429e-002
 240		2.3640e+001	18.4523		15.3778		5.9484e-002
 241		2.3738e+001	18.5422		15.3990		5.9747e-002
 242		2.3837e+001	18.6108		15.4092		5.9868e-002
 243		2.3936e+001	18.6746		15.4266		6.0066e-002
 244		2.4034e+001	18.7612		15.4406		6.0209e-002
 245		2.4133e+001	18.8519		15.4487		6.0370e-002
 246		2.4231e+001	18.9123		15.4673		6.0527e-002
 247		2.4329e+001	19.0023		15.4860		6.0659e-002
 248		2.4428e+001	19.0755		15.5051		6.0762e-002
 249		2.4526e+001	19.1655		15.5216		6.0879e-002
 250		2.4625e+001	19.2266		15.5322		6.1278e-002
 251		2.4724e+001	19.3139		15.5437		6.1278e-002
 252		2.4822e+001	19.3851		15.5517		6.1366e-002
 253		2.4921e+001	19.4677		15.5729		6.1553e-002
 254		2.5019e+001	19.5322		15.5891		6.1630e-002
 255		2.5118e+001	19.6208		15.6052		6.1761e-002
 256		2.5216e+001	19.6645		15.6111		6.1794e-002
 257		2.5314e+001	19.6799		15.6183		6.2106e-002
 258		2.5413e+001	19.6464		15.6179		6.2531e-002
 259		2.5512e+001	19.6383		15.6230		6.2329e-002
 260		2.5610e+001	19.6034		15.6149		6.2377e-002
 261		2.5709e+001	19.5738		15.6154		6.2501e-002
 262		2.5807e+001	19.5080		15.6103		6.2574e-002
 263		2.5906e+001	19.4711		15.6064		6.2655e-002
 264		2.6004e+001	19.4106		15.6043		6.2791e-002
 265		2.6102e+001	19.3495		15.5988		6.2780e-002
 266		2.6201e+001	19.2877		15.5916		6.2772e-002
 267		2.6299e+001	19.2233		15.5835		6.2758e-002
 268		2.6398e+001	19.1467		15.5742		6.2794e-002
 269		2.6497e+001	19.0782		15.5793		6.2816e-002
 270		2.6595e+001	18.9989		15.5653		6.2725e-002
 271		2.6694e+001	18.9392		15.5534		6.2754e-002
 272		2.6792e+001	18.8707		15.5479		6.2596e-002
 273		2.6890e+001	18.8163		15.5360		6.2512e-002
 274		2.6989e+001	18.7189		15.5288		6.2633e-002
 275		2.7087e+001	18.6410		15.5191		6.2545e-002
 276		2.7186e+001	18.5537		15.5089		6.2527e-002
 277		2.7285e+001	18.4858		15.5008		6.2443e-002
 278		2.7383e+001	18.4093		15.4839		6.2424e-002
 279		2.7482e+001	18.3414		15.4733		6.2296e-002
 280		2.7580e+001	18.2561		15.4682		6.2340e-002
 281		2.7679e+001	18.1796		15.4580		6.2076e-002
 282		2.7777e+001	18.1030		15.4491		6.1948e-002
 283		2.7875e+001	18.0191		15.4406		6.1912e-002
 284		2.7974e+001	17.9412		15.4245		6.1747e-002
 285		2.8073e+001	17.8673		15.4173		6.1619e-002
 286		2.8171e+001	17.8042		15.4092		6.1571e-002
 287		2.8270e+001	17.7256		15.3961		6.1505e-002
 288		2.8368e+001	17.6289		15.3846		6.1315e-002
 289		2.8467e+001	17.5711		15.3795		6.1161e-002
 290		2.8565e+001	17.4717		15.3647		6.1088e-002
 291		2.8663e+001	17.4039		15.3519		6.0901e-002
 292		2.8762e+001	17.3273		15.3443		6.0740e-002
 293		2.8860e+001	17.2528		15.3235		6.0571e-002
 294		2.8959e+001	17.1695		15.3201		6.0729e-002
 295		2.9058e+001	17.0963		15.3087		6.0289e-002
 296		2.9156e+001	16.9989		15.2960		6.0121e-002
 297		2.9255e+001	16.9317		15.2892		6.0000e-002
 298		2.9353e+001	16.8485		15.2756		5.9828e-002
 299		2.9451e+001	16.7726		15.2633		5.9755e-002
 300		2.9550e+001	16.6987		15.2451		5.9399e-002
 301		2.9648e+001	16.6161		15.2319		5.9110e-002
 302		2.9747e+001	16.5389		15.2188		5.9205e-002
 303		2.9846e+001	16.4475		15.2166		5.9052e-002
 304		2.9944e+001	16.3703		15.1967		5.8861e-002
 305		3.0043e+001	16.2870		15.1857		5.8641e-002
 306		3.0141e+001	16.2138		15.1704		5.8513e-002
 307		3.0240e+001	16.1393		15.1611		5.8301e-002
 308		3.0338e+001	16.0607		15.1500		5.8081e-002
 309		3.0436e+001	15.9841		15.1369		5.8279e-002
 310		3.0535e+001	15.9022		15.1250		5.7832e-002
 311		3.0634e+001	15.8182		15.1127		5.7642e-002
 312		3.0732e+001	15.7470		15.0987		5.7473e-002
 313		3.0831e+001	15.6698		15.0826		5.7305e-002
 314		3.0929e+001	15.5818		15.0733		5.7056e-002
 315		3.1028e+001	15.5153		15.0605		5.6938e-002
 316		3.1126e+001	15.4442		15.0436		5.6708e-002
 317		3.1224e+001	15.3669		15.0334		5.6887e-002
 318		3.1323e+001	15.2702		15.0198		5.6415e-002
 319		3.1422e+001	15.1943		15.0045		5.6239e-002
 320		3.1520e+001	15.1131		14.9939		5.6016e-002
 321		3.1619e+001	15.0425		14.9799		5.5822e-002
 322		3.1717e+001	14.9478		14.9655		5.5660e-002
 323		3.1816e+001	14.8800		14.9503		5.5397e-002
 324		3.1914e+001	14.7967		14.9380		5.5221e-002
 325		3.2013e+001	14.7262		14.9240		5.4833e-002
 326		3.2111e+001	14.6436		14.9125		5.4760e-002
 327		3.2209e+001	14.5650		14.8955		5.4595e-002
 328		3.2308e+001	14.4905		14.8798		5.4448e-002
 329		3.2407e+001	14.4119		14.8701		5.4302e-002
 330		3.2505e+001	14.3259		14.8510		5.4020e-002
 331		3.2603e+001	14.2568		14.8391		5.3778e-002
 332		3.2702e+001	14.1728		14.8209		5.3767e-002
 333		3.2801e+001	14.1097		14.8052		5.3434e-002
 334		3.2899e+001	14.0170		14.7959		5.3240e-002
 335		3.2998e+001	13.9438		14.7802		5.3049e-002
 336		3.3096e+001	13.8632		14.7645		5.2914e-002
 337		3.3194e+001	13.7806		14.7496		5.2603e-002
 338		3.3293e+001	13.7034		14.7318		5.2339e-002
 339		3.3392e+001	13.6261		14.7199		5.2185e-002
 340		3.3490e+001	13.5482		14.7021		5.1628e-002
 341		3.3589e+001	13.4737		14.6936		5.1790e-002
 342		3.3687e+001	13.3823		14.6703		5.1735e-002
 343		3.3785e+001	13.3085		14.6546		5.1423e-002
 344		3.3884e+001	13.2198		14.6419		5.1343e-002
 345		3.3983e+001	13.1573		14.6275		5.1010e-002
 346		3.4081e+001	13.0633		14.6046		5.0815e-002
 347		3.4179e+001	13.0143		14.5923		5.0350e-002
 348		3.4278e+001	12.9203		14.5753		5.0424e-002
 349		3.4377e+001	12.8424		14.5566		5.0273e-002
 350		3.4475e+001	12.7483		14.5405		5.0046e-002
 351		3.4574e+001	12.6845		14.5252		4.9805e-002
 352		3.4672e+001	12.6006		14.5100		4.9614e-002
 353		3.4770e+001	12.5341		14.4938		4.9384e-002
 354		3.4869e+001	12.4448		14.4782		4.9127e-002
 355		3.4968e+001	12.3729		14.4586		4.8896e-002
 356		3.5066e+001	12.2883		14.4413		4.8853e-002
 357		3.5164e+001	12.2171		14.4243		4.8622e-002
 358		3.5263e+001	12.1332		14.4128		4.8395e-002
 359		3.5361e+001	12.0559		14.3908		4.8138e-002
 360		3.5460e+001	11.9760		14.3793		4.8054e-002
 361		3.5559e+001	11.9142		14.3526		4.7670e-002
 362		3.5657e+001	11.8289		14.3335		4.7424e-002
 363		3.5755e+001	11.7423		14.3174		4.7355e-002
 364		3.5854e+001	11.6637		14.3021		4.7153e-002
 365		3.5953e+001	11.5777		14.2843		4.6978e-002
 366		3.6051e+001	11.5045		14.2597		4.6703e-002
 367		3.6150e+001	11.4253		14.2432		4.6556e-002
 368		3.6248e+001	11.3521		14.2254		4.6296e-002
 369		3.6346e+001	11.2581		14.2101		4.6359e-002
 370		3.6445e+001	11.1875		14.1868		4.5908e-002
 371		3.6544e+001	11.1231		14.1660		4.5787e-002
 372		3.6642e+001	11.0284		14.1460		4.5505e-002
 373		3.6740e+001	10.9545		14.1337		4.5256e-002
 374		3.6839e+001	10.8766		14.1087		4.4865e-002
 375		3.6938e+001	10.8047		14.0875		4.4780e-002
 376		3.7036e+001	10.7329		14.0680		4.4403e-002
 377		3.7135e+001	10.6429		14.0519		4.4476e-002
 378		3.7233e+001	10.5710		14.0260		4.4165e-002
 379		3.7331e+001	10.4790		14.0128		4.4019e-002
 380		3.7430e+001	10.3998		13.9912		4.3718e-002
 381		3.7529e+001	10.3380		13.9721		4.3411e-002
 382		3.7627e+001	10.2540		13.9433		4.3334e-002
 383		3.7725e+001	10.1701		13.9267		4.2891e-002
 384		3.7824e+001	10.0875		13.9038		4.2836e-002
 385		3.7922e+001	10.0263		13.8839		4.2594e-002
 386		3.8021e+001	9.9363		13.8601		4.2429e-002
 387		3.8120e+001	9.8584		13.8381		4.2125e-002
 388		3.8218e+001	9.7765		13.8152		4.1924e-002
 389		3.8316e+001	9.7080		13.7906		4.1653e-002
 390		3.8415e+001	9.6234		13.7745		4.1499e-002
 391		3.8514e+001	9.5522		13.7473		4.1265e-002
 392		3.8612e+001	9.4622		13.7227		4.1060e-002
 393		3.8711e+001	9.3803		13.7040		4.0829e-002
 394		3.8809e+001	9.3017		13.6828		4.0551e-002
 395		3.8907e+001	9.2278		13.6612		4.0269e-002
 396		3.9006e+001	9.1439		13.6319		4.0162e-002
 397		3.9105e+001	9.0740		13.6103		3.9833e-002
 398		3.9203e+001	8.9894		13.5874		3.9576e-002
 399		3.9301e+001	8.9041		13.5632		3.9404e-002
 400		3.9400e+001	8.8322		13.5352		3.9166e-002
 401		3.9499e+001	8.7651		13.5077		3.8855e-002
 402		3.9597e+001	8.6737		13.4822		3.8643e-002
 403		3.9696e+001	8.6093		13.4627		3.8210e-002
 404		3.9794e+001	8.5152		13.4326		3.8207e-002
 405		3.9892e+001	8.4454		13.4118		3.7888e-002
 406		3.9991e+001	8.3581		13.3872		3.7672e-002
 407		4.0090e+001	8.2889		13.3562		3.7427e-002
 408		4.0188e+001	8.2063		13.3316		3.7167e-002
 409		4.0286e+001	8.1378		13.2960		3.7031e-002
 410		4.0385e+001	8.0505		13.2735		3.6610e-002
 411		4.0483e+001	7.9981		13.2451		3.6621e-002
 412		4.0582e+001	7.8974		13.2192		3.6149e-002
 413		4.0681e+001	7.8161		13.1967		3.5925e-002
 414		4.0779e+001	7.7382		13.1666		3.5669e-002
 415		4.0877e+001	7.6448		13.1395		3.5438e-002
 416		4.0976e+001	7.5710		13.1085		3.5057e-002
 417		4.1075e+001	7.4937		13.0771		3.4834e-002
 418		4.1173e+001	7.4272		13.0559		3.4449e-002
 419		4.1272e+001	7.3655		13.0139		3.4296e-002
 420		4.1370e+001	7.2620		12.9872		3.4072e-002
 421		4.1468e+001	7.1875		12.9584		3.3893e-002
 422		4.1567e+001	7.0948		12.9270		3.3505e-002
 423		4.1666e+001	7.0263		12.8973		3.3197e-002
 424		4.1764e+001	6.9450		12.8646		3.2875e-002
 425		4.1862e+001	6.8812		12.8311		3.2604e-002
 426		4.1961e+001	6.7879		12.7968		3.2637e-002
 427		4.2060e+001	6.7281		12.7658		3.2135e-002
 428		4.2158e+001	6.6348		12.7378		3.1871e-002
 429		4.2257e+001	6.5555		12.6966		3.1516e-002
 430		4.2355e+001	6.4816		12.6687		3.1271e-002
 431		4.2453e+001	6.4010		12.6305		3.0828e-002
 432		4.2552e+001	6.3178		12.6025		3.0692e-002
 433		4.2651e+001	6.2587		12.5677		3.0359e-002
 434		4.2749e+001	6.1539		12.5283		3.0315e-002
 435		4.2847e+001	6.0914		12.4939		2.9755e-002
 436		4.2946e+001	6.0075		12.4600		2.9385e-002
 437		4.3044e+001	5.9396		12.4184		2.9191e-002
 438		4.3143e+001	5.8470		12.3819		2.8876e-002
 439		4.3242e+001	5.7623		12.3442		2.8535e-002
 440		4.3340e+001	5.6918		12.3064		2.8206e-002
 441		4.3438e+001	5.6415		12.2670		2.7803e-002
 442		4.3537e+001	5.5246		12.2262		2.7605e-002
 443		4.3636e+001	5.4534		12.1851		2.7272e-002
 444		4.3734e+001	5.3634		12.1444		2.7023e-002
 445		4.3833e+001	5.2889		12.1058		2.6609e-002
 446		4.3931e+001	5.2036		12.0612		2.6349e-002
 447		4.4029e+001	5.1371		12.0248		2.6019e-002
 448		4.4128e+001	5.0625		11.9730		2.5594e-002
 449		4.4227e+001	4.9853		11.9336		2.5265e-002
 450		4.4325e+001	4.8940		11.8861		2.5023e-002
 451		4.4423e+001	4.8120		11.8453		2.4639e-002
 452		4.4522e+001	4.7240		11.7944		2.4283e-002
 453		4.4621e+001	4.6663		11.7537		2.3983e-002
 454		4.4719e+001	4.5837		11.7071		2.3566e-002
 455		4.4818e+001	4.5098		11.6642		2.3188e-002
 456		4.4916e+001	4.4265		11.6116		2.2896e-002
 457		4.5014e+001	4.3567		11.5696		2.2537e-002
 458		4.5113e+001	4.2546		11.5166		2.2310e-002
 459		4.5212e+001	4.1901		11.4695		2.1866e-002
 460		4.5310e+001	4.0948		11.4123		2.1442e-002
 461		4.5408e+001	4.0310		11.3635		2.1006e-002
 462		4.5507e+001	3.9517		11.3054		2.0629e-002
 463		4.5605e+001	3.8839		11.2562		1.9977e-002
 464		4.5704e+001	3.7919		11.2040		1.9937e-002
 465		4.5803e+001	3.7119		11.1459		1.9431e-002
 466		4.5901e+001	3.6347		11.0861		1.9189e-002
 467		4.5999e+001	3.5487		11.0352		1.8765e-002
 468		4.6098e+001	3.4876		10.9758		1.8197e-002
 469		4.6197e+001	3.4097		10.9177		1.7842e-002
 470		4.6295e+001	3.3170		10.8634		1.7871e-002
 471		4.6394e+001	3.2506		10.7976		1.7047e-002
 472		4.6492e+001	3.1673		10.7332		1.6666e-002
 473		4.6590e+001	3.0874		10.6687		1.6285e-002
 474		4.6689e+001	3.0047		10.6051		1.5802e-002
 475		4.6788e+001	2.9389		10.5448		1.5458e-002
 476		4.6886e+001	2.8509		10.4676		1.4894e-002
 477		4.6984e+001	2.7744		10.4057		1.4846e-002
 478		4.7083e+001	2.7005		10.3344		1.4026e-002
 479		4.7182e+001	2.6206		10.2623		1.3528e-002
 480		4.7280e+001	2.5393		10.1890		1.3162e-002
 481		4.7379e+001	2.4675		10.1156		1.2729e-002
 482		4.7477e+001	2.3761		10.0384		1.2166e-002
 483		4.7575e+001	2.3002		9.9637		1.1733e-002
 484		4.7674e+001	2.2257		9.8844		1.1587e-002
 485		4.7773e+001	2.1485		9.8085		1.0829e-002
 486		4.7871e+001	2.0658		9.7241		1.0313e-002
 487		4.7969e+001	1.9906		9.6367		9.8328e-003
 488		4.8068e+001	1.8986		9.5561		9.2981e-003
 489		4.8166e+001	1.8308		9.4666		8.7085e-003
 490		4.8265e+001	1.7630		9.3771		8.3203e-003
 491		4.8364e+001	1.6595		9.2808		7.9321e-003
 492		4.8462e+001	1.5910		9.1888		7.3499e-003
 493		4.8560e+001	1.5051		9.0925		6.8005e-003
 494		4.8659e+001	1.4245		8.9932		6.2183e-003
 495		4.8758e+001	1.3620		8.8935		5.7898e-003
 496		4.8856e+001	1.2727		8.7871		5.1855e-003
 497		4.8955e+001	1.2183		8.6887		4.6875e-003
 498		4.9053e+001	1.1390		8.5746		4.1199e-003
 499		4.9151e+001	1.0437		8.4656		3.5339e-003
 500		4.9250e+001	0.9691		8.3404		3.0469e-003
 501		4.9349e+001	0.8825		8.2255		2.3657e-003
 502		4.9447e+001	0.8160		8.1101		1.8384e-003
 503		4.9545e+001	0.7388		7.9833		1.1536e-003
 504		4.9644e+001	0.6582		7.8505		6.8848e-004
 505		4.9743e+001	0.5675		7.7228		2.1240e-004
 506		4.9841e+001	0.5030		7.5875		-5.2734e-004
 507		4.9940e+001	0.4171		7.4412		-1.0657e-003
 508		5.0038e+001	0.3351		7.2974		-1.6699e-003
 509		5.0136e+001	0.2626		7.1439		-2.3108e-003
 510		5.0235e+001	0.1820		6.9928		-2.9773e-003
 511		5.0334e+001	0.1068		6.8261		-3.5779e-003
 512		5.0432e+001	0.0349		6.6658		-4.2810e-003
 513		5.0531e+001	-0.0524		6.4944		-4.8267e-003
 514		5.0629e+001	-0.1330		6.3184		-5.4529e-003
 515		5.0727e+001	-0.2116		6.1339		-5.9766e-003
 516		5.0826e+001	-0.2834		5.9388		-6.6943e-003
 517		5.0925e+001	-0.3600		5.7403		-7.3132e-003
 518		5.1023e+001	-0.4560		5.5312		-7.9175e-003
 519		5.1121e+001	-0.5292		5.3178		-8.6023e-003
 520		5.1220e+001	-0.5997		5.0900		-9.1187e-003
 521		5.1319e+001	-0.6763		4.8550		-9.7961e-003
 522		5.1417e+001	-0.7582		4.6010		-1.0452e-002
 523		5.1516e+001	-0.8247		4.3494		-1.1030e-002
 524		5.1614e+001	-0.9174		4.0758		-1.1594e-002
 525		5.1712e+001	-0.9920		3.8027		-1.2184e-002
 526		5.1811e+001	-1.0746		3.5019		-1.2766e-002
 527		5.1910e+001	-1.1484		3.1995		-1.3359e-002
 528		5.2008e+001	-1.2169		2.8843		-1.3707e-002
 529		5.2106e+001	-1.2962		2.5522		-1.4678e-002
 530		5.2205e+001	-1.3822		2.2082		-1.4667e-002
 531		5.2304e+001	-1.4540		1.8473		-1.4963e-002
 532		5.2402e+001	-1.5514		1.4910		-1.5359e-002
 533		5.2501e+001	-1.6246		1.1126		-1.5677e-002
 534		5.2599e+001	-1.7106		0.7372		-1.5905e-002
 535		5.2697e+001	-1.7804		0.3631		-1.6066e-002
 536		5.2796e+001	-1.8570		-0.0204		-1.6198e-002
 537		5.2895e+001	-1.9255		-0.4030		-1.6370e-002
 538		5.2993e+001	-2.0235		-0.7720		-1.5791e-002
 539		5.3092e+001	-2.0927		-1.1448		-1.6267e-002
 540		5.3190e+001	-2.1699		-1.4969		-1.6176e-002
 541		5.3288e+001	-2.2472		-1.8388		-1.6062e-002
 542		5.3387e+001	-2.3352		-2.1900		-1.5839e-002
 543		5.3486e+001	-2.3922		-2.5060		-1.5582e-002
 544		5.3584e+001	-2.4876		-2.8301		-1.5432e-002
 545		5.3682e+001	-2.5528		-3.1295		-1.5095e-002
 546		5.3781e+001	-2.6387		-3.4277		-1.4623e-002
 547		5.3880e+001	-2.7012		-3.7127		-1.4751e-002
 548		5.3978e+001	-2.8066		-3.9829		-1.3802e-002
 549		5.4077e+001	-2.8731		-4.2506		-1.3315e-002
 550		5.4175e+001	-2.9597		-4.5034		-1.2795e-002
 551		5.4273e+001	-3.0504		-4.7431		-1.2294e-002
 552		5.4372e+001	-3.1149		-4.9874		-1.1851e-002
 553		5.4471e+001	-3.1888		-5.2135		-1.1334e-002
 554		5.4569e+001	-3.2680		-5.4328		-1.0675e-002
 555		5.4667e+001	-3.3479		-5.6414		-1.0031e-002
 556		5.4766e+001	-3.4077		-5.8480		-9.6533e-003
 557		5.4865e+001	-3.4950		-6.0470		-8.8074e-003
 558		5.4963e+001	-3.5857		-6.2391		-8.2434e-003
 559		5.5062e+001	-3.6690		-6.4232		-7.5000e-003
 560		5.5160e+001	-3.7375		-6.6001		-6.8628e-003
 561		5.5258e+001	-3.8187		-6.7731		-6.1414e-003
 562		5.5357e+001	-3.8852		-6.9419		-5.5664e-003
 563		5.5456e+001	-3.9712		-7.1019		-4.8413e-003
 564		5.5554e+001	-4.0417		-7.2563		-3.8489e-003
 565		5.5653e+001	-4.1304		-7.4102		-3.5156e-003
 566		5.5751e+001	-4.2062		-7.5604		-2.7795e-003
 567		5.5849e+001	-4.2788		-7.7050		-2.0837e-003
 568		5.5948e+001	-4.3654		-7.8446		-1.3879e-003
 569		5.6047e+001	-4.4467		-7.9752		-6.7383e-004
 570		5.6145e+001	-4.5105		-8.1071		-5.1270e-005
 571		5.6243e+001	-4.6052		-8.2318		7.2144e-004
 572		5.6342e+001	-4.6750		-8.3587		1.2634e-003
 573		5.6441e+001	-4.7328		-8.4821		1.7432e-003
 574		5.6539e+001	-4.8389		-8.5966		2.7576e-003
 575		5.6638e+001	-4.9081		-8.7112		3.4167e-003
 576		5.6736e+001	-5.0054		-8.8240		4.1235e-003
 577		5.6834e+001	-5.0692		-8.9364		4.7534e-003
 578		5.6933e+001	-5.1552		-9.0424		5.4126e-003
 579		5.7032e+001	-5.2277		-9.1502		6.1853e-003
 580		5.7130e+001	-5.3130		-9.2494		6.7969e-003
 581		5.7228e+001	-5.3849		-9.3461		7.6208e-003
 582		5.7327e+001	-5.4736		-9.4488		8.1042e-003
 583		5.7426e+001	-5.5441		-9.5455		8.7231e-003
 584		5.7524e+001	-5.6428		-9.6358		9.4006e-003
 585		5.7623e+001	-5.7039		-9.7253		1.0045e-002
 586		5.7721e+001	-5.7899		-9.8178		1.0642e-002
 587		5.7819e+001	-5.8711		-9.9031		1.1257e-002
 588		5.7918e+001	-5.9383		-9.9871		1.1873e-002
 589		5.8017e+001	-6.0088		-10.0655		1.2319e-002
 590		5.8115e+001	-6.0672		-10.1546		1.2858e-002
 591		5.8214e+001	-6.1754		-10.2339		1.3667e-002
 592		5.8312e+001	-6.2607		-10.3107		1.4333e-002
 593		5.8410e+001	-6.3352		-10.3858		1.4901e-002
 594		5.8509e+001	-6.4205		-10.4630		1.5410e-002
 595		5.8608e+001	-6.4904		-10.5389		1.6029e-002
 596		5.8706e+001	-6.5770		-10.6110		1.6461e-002
 597		5.8804e+001	-6.6556		-10.6814		1.7084e-002
 598		5.8903e+001	-6.7449		-10.7489		1.8109e-002
 599		5.9002e+001	-6.8074		-10.8163		1.8215e-002
 600		5.9100e+001	-6.8879		-10.8816		1.8831e-002
 601		5.9199e+001	-6.9618		-10.9457		1.9299e-002
 602		5.9297e+001	-7.0505		-11.0106		1.9991e-002
 603		5.9395e+001	-7.1223		-11.0793		2.0380e-002
 604		5.9494e+001	-7.2043		-11.1382		2.0973e-002
 605		5.9593e+001	-7.2815		-11.1985		2.1354e-002
 606		5.9691e+001	-7.3540		-11.2587		2.1907e-002
 607		5.9789e+001	-7.4353		-11.3177		2.2533e-002
 608		5.9888e+001	-7.5179		-11.3711		2.2987e-002
 609		5.9986e+001	-7.5844		-11.4377		2.3511e-002
 610		6.0085e+001	-7.6744		-11.4929		2.3928e-002
 611		6.0184e+001	-7.7503		-11.5505		2.4401e-002
 612		6.0282e+001	-7.8322		-11.6036		2.4862e-002
 613		6.0380e+001	-7.9121		-11.6515		2.5437e-002
 614		6.0479e+001	-7.9800		-11.7117		2.5712e-002
 615		6.0578e+001	-8.0491		-11.7631		2.5704e-002
 616		6.0676e+001	-8.1371		-11.8144		2.6638e-002
 617		6.0775e+001	-8.2217		-11.8627		2.7162e-002
 618		6.0873e+001	-8.2997		-11.9073		2.7609e-002
 619		6.0971e+001	-8.3836		-11.9594		2.8026e-002
 620		6.1070e+001	-8.4642		-12.0129		2.8542e-002
 621		6.1169e+001	-8.5314		-12.0532		2.8879e-002
 622		6.1267e+001	-8.6099		-12.1041		2.9249e-002
 623		6.1365e+001	-8.6805		-12.1495		2.9652e-002
 624		6.1464e+001	-8.7597		-12.1999		2.9330e-002
 625		6.1563e+001	-8.8470		-12.2445		3.0443e-002
 626		6.1661e+001	-8.9216		-12.2869		3.0952e-002
 627		6.1760e+001	-9.0122		-12.3263		3.1245e-002
 628		6.1858e+001	-9.0921		-12.3709		3.1688e-002
 629		6.1956e+001	-9.1486		-12.4141		3.2051e-002
 630		6.2055e+001	-9.2298		-12.4549		3.2432e-002
 631		6.2154e+001	-9.3030		-12.5028		3.2776e-002
 632		6.2252e+001	-9.3984		-12.5406		3.3073e-002
 633		6.2350e+001	-9.4870		-12.5766		3.3776e-002
 634		6.2449e+001	-9.5468		-12.6233		3.3951e-002
 635		6.2547e+001	-9.6368		-12.6555		3.4325e-002
 636		6.2646e+001	-9.7134		-12.6954		3.4640e-002
 637		6.2745e+001	-9.7906		-12.7361		3.5021e-002
 638		6.2843e+001	-9.8658		-12.7751		3.5402e-002
 639		6.2941e+001	-9.9316		-12.8175		3.5742e-002
 640		6.3040e+001	-10.0082		-12.8502		3.5969e-002
 641		6.3139e+001	-10.0881		-12.8816		3.5995e-002
 642		6.3237e+001	-10.1835		-12.9210		3.6713e-002
 643		6.3336e+001	-10.2547		-12.9558		3.7042e-002
 644		6.3434e+001	-10.3386		-12.9970		3.7386e-002
 645		6.3532e+001	-10.4018		-13.0334		3.7687e-002
 646		6.3631e+001	-10.4810		-13.0648		3.8005e-002
 647		6.3730e+001	-10.5737		-13.1022		3.8335e-002
 648		6.3828e+001	-10.6382		-13.1365		3.8610e-002
 649		6.3926e+001	-10.7114		-13.1645		3.8800e-002
 650		6.4025e+001	-10.7926		-13.2056		3.9170e-002
 651		6.4124e+001	-10.8820		-13.2353		3.9521e-002
 652		6.4222e+001	-10.9699		-13.2642		3.9829e-002
 653		6.4320e+001	-11.0378		-13.3019		4.0151e-002
 654		6.4419e+001	-11.1318		-13.3304		4.0466e-002
 655		6.4517e+001	-11.1969		-13.3664		4.0745e-002
 656		6.4616e+001	-11.2648		-13.3948		4.0939e-002
 657		6.4715e+001	-11.3420		-13.4232		4.1316e-002
 658		6.4813e+001	-11.4427		-13.4525		4.1422e-002
 659		6.4912e+001	-11.5126		-13.4818		4.1862e-002
 660		6.5010e+001	-11.5939		-13.5161		4.2257e-002
 661		6.5109e+001	-11.6724		-13.5441		4.2437e-002
 662		6.5207e+001	-11.7564		-13.5730		4.2700e-002
 663		6.5305e+001	-11.8289		-13.6044		4.2953e-002
 664		6.5404e+001	-11.9075		-13.6319		4.3301e-002
 665		6.5502e+001	-11.9780		-13.6621		4.3440e-002
 666		6.5601e+001	-12.0452		-13.6922		4.3136e-002
 667		6.5700e+001	-12.1405		-13.7197		4.3956e-002
 668		6.5798e+001	-12.2178		-13.7435		4.4381e-002
 669		6.5897e+001	-12.2990		-13.7711		4.4583e-002
 670		6.5995e+001	-12.3756		-13.7999		4.4875e-002
 671		6.6094e+001	-12.4609		-13.8245		4.5092e-002
 672		6.6192e+001	-12.5234		-13.8546		4.5344e-002
 673		6.6290e+001	-12.6013		-13.8801		4.5571e-002
 674		6.6389e+001	-12.6886		-13.9021		4.5927e-002
 675		6.6487e+001	-12.7604		-13.9331		4.6025e-002
 676		6.6586e+001	-12.8437		-13.9619		4.6322e-002
 677		6.6685e+001	-12.9189		-13.9857		4.6600e-002
 678		6.6783e+001	-13.0036		-14.0078		4.6893e-002
 679		6.6882e+001	-13.0808		-14.0302		4.7076e-002
 680		6.6980e+001	-13.1627		-14.0595		4.7260e-002
 681		6.7079e+001	-13.2198		-14.0803		4.7527e-002
 682		6.7177e+001	-13.3138		-14.1070		4.7765e-002
 683		6.7275e+001	-13.4005		-14.1337		4.8135e-002
 684		6.7374e+001	-13.4770		-14.1541		4.8285e-002
 685		6.7472e+001	-13.5455		-14.1829		4.8560e-002
 686		6.7571e+001	-13.6201		-14.2037		4.8827e-002
 687		6.7669e+001	-13.7154		-14.2262		4.9017e-002
 688		6.7768e+001	-13.7893		-14.2546		4.9241e-002
 689		6.7867e+001	-13.8518		-14.2775		4.9438e-002
 690		6.7965e+001	-13.9465		-14.2966		4.9666e-002
 691		6.8064e+001	-14.0358		-14.3161		5.0021e-002
 692		6.8162e+001	-14.0956		-14.3424		5.0171e-002
 693		6.8260e+001	-14.1681		-14.3611		5.0490e-002
 694		6.8359e+001	-14.2655		-14.3887		5.0647e-002
 695		6.8457e+001	-14.3232		-14.4116		5.0801e-002
 696		6.8556e+001	-14.4146		-14.4311		5.1160e-002
 697		6.8654e+001	-14.4838		-14.4463		5.1313e-002
 698		6.8753e+001	-14.5610		-14.4752		5.1405e-002
 699		6.8852e+001	-14.6376		-14.4930		5.1760e-002
 700		6.8950e+001	-14.7302		-14.5163		5.2020e-002
 701		6.9049e+001	-14.8095		-14.5363		5.2284e-002
 702		6.9147e+001	-14.8753		-14.5571		5.2394e-002
 703		6.9246e+001	-14.9505		-14.5783		5.2793e-002
 704		6.9344e+001	-15.0331		-14.5990		5.2723e-002
 705		6.9442e+001	-15.1030		-14.6232		5.3068e-002
 706		6.9541e+001	-15.1997		-14.6398		5.3016e-002
 707		6.9639e+001	-15.2695		-14.6699		5.3485e-002
 708		6.9738e+001	-15.3441		-14.6822		5.3723e-002
 709		6.9837e+001	-15.4153		-14.6970		5.4009e-002
 710		6.9935e+001	-15.5180		-14.7199		5.4152e-002
 711		7.0034e+001	-15.5865		-14.7386		5.4404e-002
 712		7.0132e+001	-15.6678		-14.7581		5.4507e-002
 713		7.0231e+001	-15.7370		-14.7713		5.4752e-002
 714		7.0329e+001	-15.8229		-14.8014		5.4976e-002
 715		7.0427e+001	-15.9109		-14.8192		5.5276e-002
 716		7.0526e+001	-15.9855		-14.8362		5.5430e-002
 717		7.0624e+001	-16.0540		-14.8506		5.5573e-002
 718		7.0723e+001	-16.1339		-14.8688		5.5844e-002
 719		7.0822e+001	-16.2266		-14.8926		5.6038e-002
 720		7.0920e+001	-16.3004		-14.9104		5.6188e-002
 721		7.1019e+001	-16.3750		-14.9320		5.6327e-002
 722		7.1117e+001	-16.4462		-14.9486		5.6609e-002
 723		7.1216e+001	-16.5355		-14.9689		5.6909e-002
 724		7.1314e+001	-16.6235		-14.9850		5.7052e-002
 725		7.1412e+001	-16.6906		-15.0054		5.7268e-002
 726		7.1511e+001	-16.7780		-15.0181		5.7469e-002
 727		7.1609e+001	-16.8525		-15.0389		5.7623e-002
 728		7.1708e+001	-16.9311		-15.0516		5.7832e-002
 729		7.1807e+001	-16.9996		-15.0724		5.7935e-002
 730		7.1905e+001	-17.0802		-15.0966		5.8044e-002
 731		7.2004e+001	-17.1500		-15.1047		5.8019e-002
 732		7.2102e+001	-17.2528		-15.1263		5.8627e-002
 733		7.2201e+001	-17.3152		-15.1433		5.8777e-002
 734		7.2299e+001	-17.4059		-15.1551		5.9037e-002
 735		7.2397e+001	-17.4764		-15.1755		5.9227e-002
 736		7.2496e+001	-17.5563		-15.1963		5.9447e-002
 737		7.2594e+001	-17.6369		-15.2052		5.9667e-002
 738		7.2693e+001	-17.7115		-15.2238		5.9799e-002
 739		7.2791e+001	-17.8089		-15.2374		5.9586e-002
 740		7.2890e+001	-17.8733		-15.2574		6.0117e-002
 741		7.2989e+001	-17.9445		-15.2764		6.0293e-002
 742		7.3087e+001	-18.0338		-15.2896		6.0527e-002
 743		7.3186e+001	-18.1124		-15.3015		6.0754e-002
 744		7.3284e+001	-18.1856		-15.3180		6.1000e-002
 745		7.3382e+001	-18.2703		-15.3320		6.1117e-002
 746		7.3481e+001	-18.3428		-15.3498		6.1234e-002
 747		7.3579e+001	-18.4093		-15.3681		6.1322e-002
 748		7.3678e+001	-18.4905		-15.3787		6.1630e-002
 749		7.3776e+001	-18.5772		-15.4037		6.1835e-002
 750		7.3875e+001	-18.6558		-15.4113		6.1989e-002
 751		7.3974e+001	-18.7377		-15.4257		6.2164e-002
 752		7.4072e+001	-18.8116		-15.4457		6.2314e-002
 753		7.4171e+001	-18.8861		-15.4631		6.2571e-002
 754		7.4269e+001	-18.9667		-15.4660		6.2695e-002
 755		7.4368e+001	-19.0399		-15.4885		6.2893e-002
 756		7.4466e+001	-19.1353		-15.5004		6.3051e-002
 757		7.4564e+001	-19.2051		-15.5229		6.3142e-002
 758		7.4663e+001	-19.2830		-15.5309		6.3373e-002
 759		7.4761e+001	-19.3589		-15.5517		6.3534e-002
 760		7.4860e+001	-19.4388		-15.5589		6.3757e-002
 761		7.4959e+001	-19.5154		-15.5784		6.3776e-002
 762		7.5057e+001	-19.5839		-15.5912		6.4039e-002
 763		7.5156e+001	-19.6766		-15.5984		6.3765e-002
 764		7.5254e+001	-19.6920		-15.6162		6.4376e-002
 765		7.5353e+001	-19.7021		-15.6149		6.4585e-002
 766		7.5451e+001	-19.7088		-15.6200		6.4746e-002
 767		7.5549e+001	-19.6900		-15.6230		6.4926e-002
 768		7.5648e+001	-19.6564		-15.6179		6.5068e-002
 769		7.5746e+001	-19.5987		-15.6204		6.5010e-002
 770		7.5845e+001	-19.5705		-15.6166		6.5186e-002
 771		7.5944e+001	-19.4993		-15.6128		6.5116e-002
 772		7.6042e+001	-19.4657		-15.6107		6.5409e-002
 773		7.6141e+001	-19.3992		-15.5967		6.5500e-002
 774		7.6239e+001	-19.3455		-15.5971		6.5621e-002
 775		7.6338e+001	-19.2756		-15.5852		6.5750e-002
 776		7.6436e+001	-19.2024		-15.5772		6.5779e-002
 777		7.6534e+001	-19.1245		-15.5768		6.5702e-002
 778		7.6633e+001	-19.0607		-15.5721		6.5636e-002
 779		7.6731e+001	-18.9868		-15.5598		6.5673e-002
 780		7.6830e+001	-18.9183		-15.5509		6.5801e-002
 781		7.6929e+001	-18.8404		-15.5420		6.5782e-002
 782		7.7027e+001	-18.7699		-15.5292		6.5782e-002
 783		7.7126e+001	-18.6893		-15.5280		6.5691e-002
 784		7.7224e+001	-18.6087		-15.5157		6.5790e-002
 785		7.7323e+001	-18.5335		-15.5055		6.5629e-002
 786		7.7421e+001	-18.4509		-15.4974		6.5142e-002
 787		7.7519e+001	-18.3918		-15.4873		6.5533e-002
 788		7.7618e+001	-18.3085		-15.4775		6.5526e-002
 789		7.7716e+001	-18.2306		-15.4682		6.5438e-002
 790		7.7815e+001	-18.1480		-15.4546		6.5398e-002
 791		7.7913e+001	-18.0721		-15.4453		6.5222e-002
 792		7.8012e+001	-17.9983		-15.4355		6.5171e-002
 793		7.8111e+001	-17.9197		-15.4249		6.5361e-002
 794		7.8209e+001	-17.8357		-15.4147		6.4999e-002
 795		7.8308e+001	-17.7578		-15.4045		6.4937e-002
 796		7.8406e+001	-17.6853		-15.3922		6.4885e-002
 797		7.8504e+001	-17.6047		-15.3884		6.4655e-002
 798		7.8603e+001	-17.5369		-15.3744		6.4644e-002
 799		7.8701e+001	-17.4408		-15.3596		6.4475e-002
 800		7.8800e+001	-17.3683		-15.3532		6.4395e-002
 801		7.8898e+001	-17.2897		-15.3388		6.4482e-002
 802		7.8997e+001	-17.2212		-15.3244		6.4146e-002
 803		7.9096e+001	-17.1426		-15.3210		6.4116e-002
 804		7.9194e+001	-17.0674		-15.3078		6.3940e-002
 805		7.9293e+001	-16.9801		-15.2917		6.3787e-002
 806		7.9391e+001	-16.8968		-15.2845		6.3534e-002
 807		7.9490e+001	-16.8303		-15.2722		6.3549e-002
 808		7.9588e+001	-16.7484		-15.2599		6.3508e-002
 809		7.9686e+001	-16.6530		-15.2467		6.3245e-002
 810		7.9785e+001	-16.5745		-15.2349		6.3168e-002
 811		7.9883e+001	-16.5100		-15.2221		6.3076e-002
 812		7.9982e+001	-16.4314		-15.2111		6.2875e-002
 813		8.0081e+001	-16.3434		-15.1958		6.2728e-002
 814		8.0179e+001	-16.2662		-15.1831		6.2487e-002
 815		8.0278e+001	-16.1802		-15.1708		6.2314e-002
 816		8.0376e+001	-16.1211		-15.1636		6.1761e-002
 817		8.0475e+001	-16.0211		-15.1551		6.2065e-002
 818		8.0573e+001	-15.9499		-15.1369		6.1875e-002
 819		8.0671e+001	-15.8740		-15.1229		6.1820e-002
 820		8.0770e+001	-15.8008		-15.1119		6.1630e-002
 821		8.0868e+001	-15.7188		-15.0983		6.1388e-002
 822		8.0967e+001	-15.6483		-15.0805		6.1432e-002
 823		8.1066e+001	-15.5509		-15.0720		6.1165e-002
 824		8.1164e+001	-15.4831		-15.0614		6.0410e-002
 825		8.1263e+001	-15.3985		-15.0453		6.0773e-002
 826		8.1361e+001	-15.3159		-15.0304		6.0626e-002
 827		8.1460e+001	-15.2460		-15.0202		6.0432e-002
 828		8.1558e+001	-15.1701		-15.0058		6.0308e-002
 829		8.1656e+001	-15.0862		-14.9910		6.0040e-002
 830		8.1755e+001	-15.0190		-14.9812		6.0033e-002
 831		8.1853e+001	-14.9169		-14.9685		5.9828e-002
 832		8.1952e+001	-14.8585		-14.9520		6.0081e-002
 833		8.2051e+001	-14.7578		-14.9397		5.9410e-002
 834		8.2149e+001	-14.6967		-14.9244		5.9253e-002
 835		8.2248e+001	-14.6181		-14.9129		5.9169e-002
 836		8.2346e+001	-14.5442		-14.8951		5.8923e-002
 837		8.2445e+001	-14.4482		-14.8811		5.8744e-002
 838		8.2543e+001	-14.3756		-14.8650		5.8630e-002
 839		8.2641e+001	-14.3031		-14.8527		5.8363e-002
 840		8.2740e+001	-14.2265		-14.8395		5.8594e-002
 841		8.2838e+001	-14.1359		-14.8243		5.7986e-002
 842		8.2937e+001	-14.0754		-14.8082		5.7924e-002
 843		8.3035e+001	-13.9834		-14.7993		5.7704e-002
 844		8.3134e+001	-13.9109		-14.7742		5.7535e-002
 845		8.3233e+001	-13.8404		-14.7623		5.7308e-002
 846		8.3331e+001	-13.7517		-14.7467		5.7111e-002
 847		8.3430e+001	-13.6678		-14.7284		5.6880e-002
 848		8.3528e+001	-13.5724		-14.7208		5.6550e-002
 849		8.3626e+001	-13.5066		-14.7004		5.6580e-002
 850		8.3725e+001	-13.4401		-14.6881		5.6543e-002
 851		8.3823e+001	-13.3622		-14.6695		5.6213e-002
 852		8.3922e+001	-13.2897		-14.6550		5.6067e-002
 853		8.4020e+001	-13.1963		-14.6376		5.5876e-002
 854		8.4119e+001	-13.1244		-14.6228		5.5627e-002
 855		8.4218e+001	-13.0365		-14.6109		5.5529e-002
 856		8.4316e+001	-12.9659		-14.5906		5.5316e-002
 857		8.4415e+001	-12.8847		-14.5719		5.5111e-002
 858		8.4513e+001	-12.8061		-14.5566		5.4957e-002
 859		8.4612e+001	-12.7416		-14.5384		5.4723e-002
 860		8.4710e+001	-12.6610		-14.5308		5.4518e-002
 861		8.4808e+001	-12.5744		-14.5083		5.4415e-002
 862		8.4907e+001	-12.5012		-14.4896		5.4163e-002
 863		8.5005e+001	-12.4092		-14.4743		5.4130e-002
 864		8.5104e+001	-12.3414		-14.4536		5.3752e-002
 865		8.5203e+001	-12.2574		-14.4396		5.3610e-002
 866		8.5301e+001	-12.1909		-14.4200		5.3419e-002
 867		8.5400e+001	-12.1083		-14.4086		5.3177e-002
 868		8.5498e+001	-12.0250		-14.3857		5.2903e-002
 869		8.5597e+001	-11.9444		-14.3730		5.2731e-002
 870		8.5695e+001	-11.8699		-14.3496		5.2397e-002
 871		8.5793e+001	-11.7866		-14.3314		5.2321e-002
 872		8.5892e+001	-11.7100		-14.3123		5.2163e-002
 873		8.5990e+001	-11.6207		-14.2932		5.1991e-002
 874		8.6089e+001	-11.5610		-14.2792		5.1852e-002
 875		8.6188e+001	-11.4750		-14.2563		5.1530e-002
 876		8.6286e+001	-11.3964		-14.2398		5.1361e-002
 877		8.6385e+001	-11.3151		-14.2177		5.1108e-002
 878		8.6483e+001	-11.2433		-14.2097		5.0739e-002
 879		8.6582e+001	-11.1660		-14.1825		5.0804e-002
 880		8.6680e+001	-11.0881		-14.1630		5.0570e-002
 881		8.6778e+001	-11.0028		-14.1469		5.0376e-002
 882		8.6877e+001	-10.9263		-14.1236		5.0145e-002
 883		8.6975e+001	-10.8531		-14.1011		5.0013e-002
 884		8.7074e+001	-10.7611		-14.0905		4.9735e-002
 885		8.7172e+001	-10.6751		-14.0680		4.9457e-002
 886		8.7271e+001	-10.6140		-14.0502		4.9325e-002
 887		8.7370e+001	-10.5314		-14.0209		4.9083e-002
 888		8.7468e+001	-10.4535		-14.0073		4.8951e-002
 889		8.7567e+001	-10.3850		-13.9844		4.8655e-002
 890		8.7665e+001	-10.3024		-13.9645		4.8464e-002
 891		8.7763e+001	-10.2211		-13.9403		4.8186e-002
 892		8.7862e+001	-10.1372		-13.9161		4.7622e-002
 893		8.7960e+001	-10.0505		-13.8962		4.7823e-002
 894		8.8059e+001	-9.9766		-13.8809		4.7534e-002
 895		8.8157e+001	-9.9021		-13.8504		4.7333e-002
 896		8.8256e+001	-9.8235		-13.8309		4.7157e-002
 897		8.8355e+001	-9.7389		-13.8063		4.6901e-002
 898		8.8453e+001	-9.6630		-13.7880		4.6633e-002
 899		8.8552e+001	-9.5891		-13.7702		4.6388e-002
 900		8.8650e+001	-9.5092		-13.7435		4.6267e-002
 901		8.8749e+001	-9.4373		-13.7206		4.6040e-002
 902		8.8847e+001	-9.3608		-13.6994		4.5751e-002
 903		8.8945e+001	-9.2795		-13.6744		4.5601e-002
 904		8.9044e+001	-9.1996		-13.6472		4.5333e-002
 905		8.9142e+001	-9.1163		-13.6277		4.5077e-002
 906		8.9241e+001	-9.0317		-13.6001		4.4879e-002
 907		8.9340e+001	-8.9686		-13.5806		4.4685e-002
 908		8.9438e+001	-8.8813		-13.5518		4.4495e-002
 909		8.9537e+001	-8.8027		-13.5327		4.4253e-002
 910		8.9635e+001	-8.7308		-13.5000		4.3956e-002
 911		8.9734e+001	-8.6522		-13.4818		4.3759e-002
 912		8.9832e+001	-8.5622		-13.4529		4.3488e-002
 913		8.9930e+001	-8.4810		-13.4292		4.3260e-002
 914		9.0029e+001	-8.4306		-13.4003		4.3275e-002
 915		9.0127e+001	-8.3406		-13.3766		4.2766e-002
 916		9.0226e+001	-8.2620		-13.3448		4.2429e-002
 917		9.0325e+001	-8.1882		-13.3214		4.2338e-002
 918		9.0423e+001	-8.1089		-13.2977		4.2067e-002
 919		9.0522e+001	-8.0250		-13.2697		4.1825e-002
 920		9.0620e+001	-7.9383		-13.2366		4.1528e-002
 921		9.0719e+001	-7.8698		-13.2090		4.1334e-002
 922		9.0817e+001	-7.7906		-13.1815		4.1056e-002
 923		9.0915e+001	-7.6999		-13.1556		4.0873e-002
 924		9.1014e+001	-7.6314		-13.1251		4.0693e-002
 925		9.1112e+001	-7.5548		-13.0979		4.0320e-002
 926		9.1211e+001	-7.4722		-13.0682		4.0067e-002
 927		9.1310e+001	-7.3863		-13.0360		3.9873e-002
 928		9.1408e+001	-7.3131		-13.0088		3.9558e-002
 929		9.1507e+001	-7.2392		-12.9757		3.9364e-002
 930		9.1605e+001	-7.1539		-12.9422		3.9060e-002
 931		9.1704e+001	-7.0773		-12.9147		3.8782e-002
 932		9.1802e+001	-7.0075		-12.8871		3.8416e-002
 933		9.1900e+001	-6.9262		-12.8523		3.8291e-002
 934		9.1999e+001	-6.8497		-12.8230		3.7958e-002
 935		9.2097e+001	-6.7624		-12.7878		3.7555e-002
 936		9.2196e+001	-6.6777		-12.7522		3.7379e-002
 937		9.2294e+001	-6.6025		-12.7229		3.7108e-002
 938		9.2393e+001	-6.5300		-12.6856		3.6925e-002
 939		9.2492e+001	-6.4386		-12.6564		3.6636e-002
 940		9.2590e+001	-6.3728		-12.6182		3.6335e-002
 941		9.2689e+001	-6.2862		-12.5881		3.6024e-002
 942		9.2787e+001	-6.2204		-12.5473		3.5669e-002
 943		9.2885e+001	-6.1337		-12.5113		3.5405e-002
 944		9.2984e+001	-6.0511		-12.4786		3.5200e-002
 945		9.3082e+001	-5.9786		-12.4438		3.4783e-002
 946		9.3181e+001	-5.8967		-12.4044		3.4596e-002
 947		9.3279e+001	-5.8107		-12.3671		3.4288e-002
 948		9.3378e+001	-5.7382		-12.3247		3.4014e-002
 949		9.3477e+001	-5.6569		-12.2852		3.3691e-002
 950		9.3575e+001	-5.5777		-12.2483		3.3259e-002
 951		9.3674e+001	-5.4971		-12.2072		3.3018e-002
 952		9.3772e+001	-5.4185		-12.1669		3.2845e-002
 953		9.3871e+001	-5.3339		-12.1283		3.2380e-002
 954		9.3969e+001	-5.2687		-12.0816		3.2106e-002
 955		9.4067e+001	-5.1875		-12.0481		3.1787e-002
 956		9.4166e+001	-5.1102		-11.9997		3.1443e-002
 957		9.4264e+001	-5.0229		-11.9599		3.1113e-002
 958		9.4363e+001	-4.9457		-11.9098		3.0732e-002
 959		9.4462e+001	-4.8678		-11.8704		3.0527e-002
 960		9.4560e+001	-4.7825		-11.8241		3.0121e-002
 961		9.4659e+001	-4.7046		-11.7783		2.9751e-002
 962		9.4757e+001	-4.6307		-11.7312		2.9495e-002
 963		9.4856e+001	-4.5508		-11.6829		2.9103e-002
 964		9.4954e+001	-4.4769		-11.6324		2.8715e-002
 965		9.5052e+001	-4.3822		-11.5887		2.8363e-002
 966		9.5151e+001	-4.3063		-11.5361		2.8026e-002
 967		9.5249e+001	-4.2224		-11.4903		2.7590e-002
 968		9.5348e+001	-4.1559		-11.4398		2.7246e-002
 969		9.5447e+001	-4.0706		-11.3868		2.6927e-002
 970		9.5545e+001	-4.0115		-11.3346		2.6583e-002
 971		9.5644e+001	-3.9201		-11.2808		2.6136e-002
 972		9.5742e+001	-3.8362		-11.2227		2.5811e-002
 973		9.5841e+001	-3.7529		-11.1756		2.5345e-002
 974		9.5939e+001	-3.7059		-11.1179		2.5027e-002
 975		9.6037e+001	-3.6031		-11.0661		2.4580e-002
 976		9.6136e+001	-3.5420		-10.9983		2.4283e-002
 977		9.6234e+001	-3.4426		-10.9444		2.3800e-002
 978		9.6333e+001	-3.3714		-10.8778		2.3379e-002
 979		9.6432e+001	-3.2801		-10.8252		2.2928e-002
 980		9.6530e+001	-3.2170		-10.7620		2.2566e-002
 981		9.6629e+001	-3.1337		-10.6971		2.2269e-002
 982		9.6727e+001	-3.0659		-10.6305		2.1786e-002
 983		9.6826e+001	-2.9772		-10.5622		2.1255e-002
 984		9.6924e+001	-2.9047		-10.4978		2.0848e-002
 985		9.7022e+001	-2.8221		-10.4350		2.0431e-002
 986		9.7121e+001	-2.7448		-10.3582		1.9849e-002
 987		9.7219e+001	-2.6616		-10.2878		1.9457e-002
 988		9.7318e+001	-2.5837		-10.2195		1.8911e-002
 989		9.7416e+001	-2.5131		-10.1482		1.8622e-002
 990		9.7515e+001	-2.4252		-10.0685		1.8120e-002
 991		9.7614e+001	-2.3513		-9.9934		1.7600e-002
 992		9.7712e+001	-2.2767		-9.9137		1.7161e-002
 993		9.7811e+001	-2.1867		-9.8335		1.6549e-002
 994		9.7909e+001	-2.1035		-9.7504		1.6066e-002
 995		9.8007e+001	-2.0383		-9.6715		1.5710e-002
 996		9.8106e+001	-1.9564		-9.5777		1.5179e-002
 997		9.8204e+001	-1.8879		-9.4980		1.4670e-002
 998		9.8303e+001	-1.8080		-9.4017		1.4121e-002
 999		9.8401e+001	-1.7227		-9.3092		1.3612e-002
1000		9.8500e+001	-1.6367		-9.2231		1.3096e-002
1001		9.8599e+001	-1.5480		-9.1290		1.2543e-002
1002		9.8697e+001	-1.4869		-9.0259		1.2034e-002
1003		9.8796e+001	-1.4036		-8.9266		1.1455e-002
1004		9.8894e+001	-1.3439		-8.8189		1.0968e-002
1005		9.8993e+001	-1.2505		-8.7209		1.0375e-002
1006		9.9091e+001	-1.1713		-8.6077		9.7595e-003
1007		9.9189e+001	-1.1021		-8.4970		9.1516e-003
1008		9.9288e+001	-1.0128		-8.3858		8.7708e-003
1009		9.9386e+001	-0.9369		-8.2683		8.0457e-003
1010		9.9485e+001	-0.8644		-8.1432		7.5769e-003
1011		9.9584e+001	-0.7824		-8.0219		6.8555e-003
1012		9.9682e+001	-0.7038		-7.8951		6.2842e-003
1013		9.9781e+001	-0.6246		-7.7648		5.6726e-003
1014		9.9879e+001	-0.5500		-7.6270		5.0720e-003
1015		9.9978e+001	-0.4634		-7.4955		4.4531e-003
1016		1.0008e+002	-0.3868		-7.3483		3.7756e-003
1017		1.0017e+002	-0.3056		-7.1981		3.1677e-003

PMax (µC/cm2):		1.56e+001
Pr (µC/cm2):		6.60e+000
-Pr (µC/cm2):		-7.20e+000
Vc:			2.42e+002
-Vc:			-2.10e+002
C (Max-Eff) (nF):	6.50e+000
Vert. Eccentricity (µC/cm2):	-3.00e-001

Horiz. Eccentricity (Volts):	1.57e+001

Offset (µC/cm2):	5.31e+000



Hysteresis Version: 4.6.11 - Radiant Technologies, Inc., 1999 - 12/12/11

