»»»»»»»»»»»»»»»»»»»»»»»»»»»»»»»»»»»» Hysteresis ««««««««««««««««««««««««««««««««««««
»»»  Version:			4.6.11
»»»  Vision Version:		4.6.5 (R)
»»»  Vision Compiled:		7 December 2011
»»»  Driver Version:		4.6.17
»»»  Tester Name:		PPM21211-813
»»»  Tester S/N:		PPM21211-813                    
»»»  Internal Amp Type:		No Internal Amp
»»»  Internal Amp S/N:		100000
»»»  Execution Count:		0
»»»»»»»»»»»»»»»»»»»»»»»»»»»»»»»»»»»»»»»»»»««««««««««««««««««««««««««««««««««««««««««

Stored:				5/16/2024 - 12:16:13
Configured:			05/16/24 12:00:07 PM
Executed:			05/16/24 12:15:49 PM

»»»»»»»»»»»»»»»»»»»»»»»»»»»»»»»»»»» Sample Info ««««««««««««««««««««««««««««««««««««
Sample Name:			
Lot Name:			
Wafer Name:			
Die Row/Column:			0/0
Capacitor Number:		0
Sample Area (cm2):		1.01e+000
Sample Thickness (µm):		1.11e+003

Mux Loop Adjustment:		Disabled

Amplifier:			High Voltage (HVA)
HVI Channel/Port:		1/1
Drive Gain Factor:			1000.00r
Drive Voltage Limit:			4000.00r

»»»»»»»»»»»»»»»»»»»»»»»»»»»»»»»»»»» Tester Info «««««««««««««««««««««««««««««««««««
Tester Name:			PPM21211-813
Tester Serial Number:		PPM21211-813                    
Return Signal Amp. Level:	0.00019

»»»»»»»»»»»»»»»»»»»»»»»»»»»»»»»» Hysteresis Info ««««««««««««««««««««««««««««««««««
Task Name:			Hyst-2
Volts:				2220.00
Field:				20.00 (kV/cm)
Hysteresis Period (ms):		1.00e+002
Preset:				Enabled
Preset Delay (ms):		1.00e+002
Profile:			Standard Bipolar

Sensor Offset:			0.00  
Sensor Scale:			-0.05 
Sensor Impedance (Ohms):	50
Sensor Label:			%

»»»»»»»»»»»»»»»»»»»»»»»»»»»»»»»»»»»»»» Data «««««««««««««««««««««««««««««««««««««««
Points:				1017

Valid Data

Point		Time (ms)	Field (kV/cm)	Measured Polarization	Sensor
   1		9.8500e-002	-0.0137		-1.7344		2.2767e-003
   2		1.9700e-001	0.0048		-1.7380		2.2916e-003
   3		2.9550e-001	0.0378		-1.7336		2.3066e-003
   4		3.9400e-001	0.0639		-1.7309		2.2318e-003
   5		4.9250e-001	0.1285		-1.7328		2.2842e-003
   6		5.9100e-001	0.1863		-1.7241		2.3066e-003
   7		6.8950e-001	0.2488		-1.7205		2.3328e-003
   8		7.8800e-001	0.3045		-1.7173		2.2767e-003
   9		8.8650e-001	0.3842		-1.7081		2.3178e-003
  10		9.8500e-001	0.4399		-1.7041		2.2281e-003
  11		1.0835e+000	0.5038		-1.6938		2.2318e-003
  12		1.1820e+000	0.5760		-1.6858		2.3664e-003
  13		1.2805e+000	0.6674		-1.6682		2.2094e-003
  14		1.3790e+000	0.7258		-1.6483		2.2767e-003
  15		1.4775e+000	0.8104		-1.6247		2.3178e-003
  16		1.5760e+000	0.8736		-1.6024		2.3402e-003
  17		1.6745e+000	0.9630		-1.5753		2.2617e-003
  18		1.7730e+000	1.0406		-1.5262		2.1683e-003
  19		1.8715e+000	1.1100		-1.4707		2.1683e-003
  20		1.9700e+000	1.1836		-1.4161		2.2468e-003
  21		2.0685e+000	1.2599		-1.3499		2.2131e-003
  22		2.1670e+000	1.3465		-1.2788		2.2206e-003
  23		2.2655e+000	1.4242		-1.1998		2.1384e-003
  24		2.3640e+000	1.4846		-1.1025		2.1085e-003
  25		2.4625e+000	1.5822		-1.0048		2.1533e-003
  26		2.5610e+000	1.6489		-0.8954		2.1496e-003
  27		2.6595e+000	1.7286		-0.7730		2.1384e-003
  28		2.7580e+000	1.8036		-0.6309		2.1272e-003
  29		2.8565e+000	1.8929		-0.4554		2.1159e-003
  30		2.9550e+000	1.9630		-0.2452		2.1608e-003
  31		3.0535e+000	2.0297		0.0225		2.0262e-003
  32		3.1520e+000	2.1026		0.3724		2.0374e-003
  33		3.2505e+000	2.2153		0.7498		2.0935e-003
  34		3.3490e+000	2.2984		1.0981		2.1309e-003
  35		3.4475e+000	2.3658		1.3838		2.3141e-003
  36		3.5460e+000	2.4318		1.6343		2.1421e-003
  37		3.6445e+000	2.5204		1.8569		2.1458e-003
  38		3.7430e+000	2.5940		2.0680		2.3215e-003
  39		3.8415e+000	2.6627		2.2595		2.2169e-003
  40		3.9400e+000	2.7514		2.4398		2.4711e-003
  41		4.0385e+000	2.8311		2.6225		2.4075e-003
  42		4.1370e+000	2.9047		2.7905		2.4973e-003
  43		4.2355e+000	2.9892		2.9461		2.5795e-003
  44		4.3340e+000	3.0689		3.1005		2.7029e-003
  45		4.4325e+000	3.1555		3.2572		2.6356e-003
  46		4.5310e+000	3.2160		3.3933		2.8561e-003
  47		4.6295e+000	3.2903		3.5321		3.0431e-003
  48		4.7280e+000	3.3796		3.6757		3.1627e-003
  49		4.8265e+000	3.4642		3.8146		3.1664e-003
  50		4.9250e+000	3.5212		3.9411		3.3272e-003
  51		5.0235e+000	3.6099		4.0635		3.4618e-003
  52		5.1220e+000	3.6745		4.1868		3.5851e-003
  53		5.2205e+000	3.7652		4.3081		3.6749e-003
  54		5.3190e+000	3.8374		4.4246		3.8506e-003
  55		5.4175e+000	3.9281		4.5399		4.0263e-003
  56		5.5160e+000	3.9968		4.6468		4.1197e-003
  57		5.6145e+000	4.0773		4.7509		4.1908e-003
  58		5.7130e+000	4.1536		4.8594		4.3627e-003
  59		5.8115e+000	4.2546		4.9556		4.4599e-003
  60		5.9100e+000	4.3302		5.0481		4.6543e-003
  61		6.0085e+000	4.3790		5.1475		4.9459e-003
  62		6.1070e+000	4.4615		5.2424		5.0244e-003
  63		6.2055e+000	4.5467		5.3334		5.1440e-003
  64		6.3040e+000	4.6223		5.4188		5.0992e-003
  65		6.4025e+000	4.7089		5.5125		5.3983e-003
  66		6.5010e+000	4.7866		5.5895		5.6076e-003
  67		6.5995e+000	4.8608		5.6753		5.7534e-003
  68		6.6980e+000	4.9289		5.7575		5.8917e-003
  69		6.7965e+000	5.0127		5.8353		6.0487e-003
  70		6.8950e+000	5.1014		5.9111		6.3927e-003
  71		6.9935e+000	5.1763		5.9857		6.3852e-003
  72		7.0920e+000	5.2560		6.0595		6.5385e-003
  73		7.1905e+000	5.3468		6.1361		6.8039e-003
  74		7.2890e+000	5.4162		6.2039		6.8712e-003
  75		7.3875e+000	5.4897		6.2757		6.9983e-003
  76		7.4860e+000	5.5743		6.3467		7.2450e-003
  77		7.5845e+000	5.6513		6.4130		7.3534e-003
  78		7.6830e+000	5.7392		6.4740		7.5927e-003
  79		7.7815e+000	5.8176		6.5378		7.6824e-003
  80		7.8800e+000	5.8987		6.6025		7.7348e-003
  81		7.9785e+000	5.9750		6.6655		7.9852e-003
  82		8.0770e+000	6.0540		6.7213		8.1796e-003
  83		8.1755e+000	6.1269		6.7832		8.3217e-003
  84		8.2740e+000	6.2004		6.8402		8.4974e-003
  85		8.3725e+000	6.2863		6.8993		8.6843e-003
  86		8.4710e+000	6.3709		6.9571		8.9049e-003
  87		8.5695e+000	6.4513		7.0070		8.8413e-003
  88		8.6680e+000	6.5049		7.0617		9.1553e-003
  89		8.7665e+000	6.6039		7.1099		9.2563e-003
  90		8.8650e+000	6.6740		7.1666		9.4843e-003
  91		8.9635e+000	6.7551		7.2157		9.5965e-003
  92		9.0620e+000	6.8314		7.2647		9.7049e-003
  93		9.1605e+000	6.9084		7.3106		9.8582e-003
  94		9.2590e+000	6.9840		7.3581		9.9965e-003
  95		9.3575e+000	7.0802		7.4052		1.0277e-002
  96		9.4560e+000	7.1366		7.4518		1.0382e-002
  97		9.5545e+000	7.2232		7.5017		1.0456e-002
  98		9.6530e+000	7.2912		7.5456		1.0639e-002
  99		9.7515e+000	7.3854		7.5827		1.0770e-002
 100		9.8500e+000	7.4569		7.6326		1.0980e-002
 101		9.9485e+000	7.5579		7.6709		1.0987e-002
 102		1.0047e+001	7.6232		7.7227		1.1189e-002
 103		1.0146e+001	7.6981		7.7606		1.1395e-002
 104		1.0244e+001	7.7634		7.7969		1.1447e-002
 105		1.0342e+001	7.8466		7.8384		1.1690e-002
 106		1.0441e+001	7.9229		7.8791		1.1843e-002
 107		1.0540e+001	8.0088		7.9190		1.1810e-002
 108		1.0638e+001	8.0927		7.9545		1.2015e-002
 109		1.0736e+001	8.1848		7.9956		1.2251e-002
 110		1.0835e+001	8.2452		8.0335		1.2240e-002
 111		1.0934e+001	8.3215		8.0690		1.2385e-002
 112		1.1032e+001	8.3951		8.1053		1.2595e-002
 113		1.1131e+001	8.4851		8.1392		1.2789e-002
 114		1.1229e+001	8.5504		8.1819		1.2815e-002
 115		1.1328e+001	8.6315		8.2138		1.2924e-002
 116		1.1426e+001	8.7106		8.2442		1.3122e-002
 117		1.1525e+001	8.8027		8.2844		1.3159e-002
 118		1.1623e+001	8.8748		8.3172		1.3331e-002
 119		1.1722e+001	8.9511		8.3511		1.3406e-002
 120		1.1820e+001	9.0261		8.3830		1.3574e-002
 121		1.1919e+001	9.1133		8.4073		1.3694e-002
 122		1.2017e+001	9.1835		8.4448		1.3813e-002
 123		1.2116e+001	9.2591		8.4783		1.3948e-002
 124		1.2214e+001	9.3429		8.5079		1.4071e-002
 125		1.2313e+001	9.4165		8.5350		1.4213e-002
 126		1.2411e+001	9.4886		8.5705		1.4281e-002
 127		1.2509e+001	9.5787		8.6020		1.4434e-002
 128		1.2608e+001	9.6584		8.6319		1.4617e-002
 129		1.2707e+001	9.7306		8.6619		1.4692e-002
 130		1.2805e+001	9.8041		8.6822		1.4733e-002
 131		1.2903e+001	9.8921		8.7157		1.4845e-002
 132		1.3002e+001	9.9732		8.7452		1.5032e-002
 133		1.3101e+001	10.0550		8.7728		1.5114e-002
 134		1.3199e+001	10.1272		8.8055		1.5283e-002
 135		1.3297e+001	10.1980		8.8354		1.5432e-002
 136		1.3396e+001	10.2784		8.8637		1.5507e-002
 137		1.3495e+001	10.3643		8.8889		1.5548e-002
 138		1.3593e+001	10.4475		8.9076		1.5630e-002
 139		1.3692e+001	10.5251		8.9371		1.5776e-002
 140		1.3790e+001	10.6090		8.9655		1.5918e-002
 141		1.3889e+001	10.6860		8.9926		1.5997e-002
 142		1.3987e+001	10.7547		9.0185		1.6176e-002
 143		1.4086e+001	10.8317		9.0401		1.6303e-002
 144		1.4184e+001	10.9093		9.0644		1.6382e-002
 145		1.4283e+001	10.9918		9.0931		1.6288e-002
 146		1.4381e+001	11.0667		9.1191		1.6527e-002
 147		1.4480e+001	11.1293		9.1442		1.6651e-002
 148		1.4578e+001	11.2111		9.1697		1.6718e-002
 149		1.4677e+001	11.3142		9.1933		1.6845e-002
 150		1.4775e+001	11.3829		9.2140		1.6976e-002
 151		1.4874e+001	11.4510		9.2423		1.7051e-002
 152		1.4972e+001	11.5355		9.2579		1.7066e-002
 153		1.5070e+001	11.6200		9.2834		1.7316e-002
 154		1.5169e+001	11.6970		9.2982		1.7361e-002
 155		1.5268e+001	11.7582		9.3305		1.7496e-002
 156		1.5366e+001	11.8455		9.3477		1.7619e-002
 157		1.5464e+001	11.9307		9.3728		1.7615e-002
 158		1.5563e+001	12.0153		9.3955		1.7705e-002
 159		1.5662e+001	12.0854		9.4147		1.7888e-002
 160		1.5760e+001	12.1679		9.4394		1.7993e-002
 161		1.5858e+001	12.2373		9.4618		1.8079e-002
 162		1.5957e+001	12.3198		9.4801		1.8199e-002
 163		1.6055e+001	12.3947		9.5088		1.8296e-002
 164		1.6154e+001	12.4765		9.5260		1.8348e-002
 165		1.6253e+001	12.5569		9.5515		1.8427e-002
 166		1.6351e+001	12.6339		9.5739		1.8542e-002
 167		1.6450e+001	12.7163		9.5886		1.8651e-002
 168		1.6548e+001	12.7940		9.6058		1.8737e-002
 169		1.6647e+001	12.8737		9.6293		1.8875e-002
 170		1.6745e+001	12.9370		9.6441		1.8898e-002
 171		1.6843e+001	13.0243		9.6708		1.8965e-002
 172		1.6942e+001	13.1006		9.6872		1.9111e-002
 173		1.7041e+001	13.1879		9.7103		1.9193e-002
 174		1.7139e+001	13.2559		9.7259		1.9324e-002
 175		1.7238e+001	13.3343		9.7422		1.9481e-002
 176		1.7336e+001	13.4009		9.7709		1.9372e-002
 177		1.7435e+001	13.5006		9.7845		1.9597e-002
 178		1.7533e+001	13.5707		9.8001		1.9608e-002
 179		1.7631e+001	13.6477		9.8156		1.9698e-002
 180		1.7730e+001	13.7281		9.8416		1.9877e-002
 181		1.7828e+001	13.8092		9.8619		1.9989e-002
 182		1.7927e+001	13.8876		9.8775		2.0030e-002
 183		1.8026e+001	13.9749		9.8934		2.0049e-002
 184		1.8124e+001	14.0374		9.9122		2.0236e-002
 185		1.8223e+001	14.1206		9.9313		2.0258e-002
 186		1.8321e+001	14.2092		9.9445		2.0348e-002
 187		1.8419e+001	14.2848		9.9708		2.0382e-002
 188		1.8518e+001	14.3625		9.9892		2.0468e-002
 189		1.8616e+001	14.4367		10.0039		2.0531e-002
 190		1.8715e+001	14.5130		10.0219		2.0621e-002
 191		1.8814e+001	14.5976		10.0418		2.0711e-002
 192		1.8912e+001	14.6581		10.0554		2.0815e-002
 193		1.9011e+001	14.7618		10.0674		2.0920e-002
 194		1.9109e+001	14.8182		10.0929		2.1043e-002
 195		1.9208e+001	14.9165		10.1053		2.1100e-002
 196		1.9306e+001	14.9818		10.1200		2.1152e-002
 197		1.9404e+001	15.0547		10.1392		2.1234e-002
 198		1.9503e+001	15.1385		10.1571		2.1331e-002
 199		1.9602e+001	15.2162		10.1663		2.1425e-002
 200		1.9700e+001	15.2959		10.1878		2.1492e-002
 201		1.9799e+001	15.3908		10.2006		2.1556e-002
 202		1.9897e+001	15.4650		10.2146		2.1623e-002
 203		1.9996e+001	15.5275		10.2349		2.1668e-002
 204		2.0094e+001	15.6100		10.2493		2.1825e-002
 205		2.0192e+001	15.6939		10.2660		2.1952e-002
 206		2.0291e+001	15.7715		10.2904		2.1900e-002
 207		2.0390e+001	15.8444		10.2980		2.1937e-002
 208		2.0488e+001	15.9351		10.3155		2.2109e-002
 209		2.0587e+001	16.0169		10.3279		2.2229e-002
 210		2.0685e+001	16.0884		10.3398		2.2277e-002
 211		2.0784e+001	16.1613		10.3630		2.2337e-002
 212		2.0882e+001	16.2389		10.3750		2.2468e-002
 213		2.0980e+001	16.3173		10.3837		2.2789e-002
 214		2.1079e+001	16.3950		10.4089		2.2595e-002
 215		2.1177e+001	16.4706		10.4188		2.2632e-002
 216		2.1276e+001	16.5317		10.4288		2.2729e-002
 217		2.1375e+001	16.6424		10.4480		2.2782e-002
 218		2.1473e+001	16.7036		10.4627		2.2838e-002
 219		2.1572e+001	16.7929		10.4783		2.3010e-002
 220		2.1670e+001	16.8706		10.4938		2.3032e-002
 221		2.1769e+001	16.9503		10.5062		2.3171e-002
 222		2.1867e+001	17.0280		10.5198		2.3201e-002
 223		2.1965e+001	17.1050		10.5349		2.3301e-002
 224		2.2064e+001	17.1923		10.5481		2.3316e-002
 225		2.2163e+001	17.2699		10.5621		2.3421e-002
 226		2.2261e+001	17.3400		10.5788		2.3451e-002
 227		2.2360e+001	17.4287		10.5860		2.3507e-002
 228		2.2458e+001	17.5002		10.6048		2.3578e-002
 229		2.2557e+001	17.5909		10.6223		2.3739e-002
 230		2.2655e+001	17.6548		10.6335		2.3795e-002
 231		2.2753e+001	17.7380		10.6466		2.3758e-002
 232		2.2852e+001	17.8143		10.6582		2.3870e-002
 233		2.2951e+001	17.8988		10.6726		2.3911e-002
 234		2.3049e+001	17.9731		10.6817		2.3982e-002
 235		2.3148e+001	18.0624		10.7001		2.4101e-002
 236		2.3246e+001	18.1346		10.7121		2.4135e-002
 237		2.3345e+001	18.2184		10.7296		2.4150e-002
 238		2.3443e+001	18.2913		10.7400		2.4307e-002
 239		2.3541e+001	18.3710		10.7576		2.4300e-002
 240		2.3640e+001	18.4453		10.7655		2.4389e-002
 241		2.3738e+001	18.5339		10.7799		2.4539e-002
 242		2.3837e+001	18.5985		10.7911		2.4535e-002
 243		2.3936e+001	18.6762		10.8062		2.4509e-002
 244		2.4034e+001	18.7436		10.8174		2.4599e-002
 245		2.4133e+001	18.8480		10.8270		2.4640e-002
 246		2.4231e+001	18.9168		10.8425		2.4819e-002
 247		2.4329e+001	19.0006		10.8541		2.4827e-002
 248		2.4428e+001	19.0707		10.8669		2.4961e-002
 249		2.4526e+001	19.1518		10.8788		2.4950e-002
 250		2.4625e+001	19.2316		10.8900		2.4999e-002
 251		2.4724e+001	19.2976		10.9044		2.5118e-002
 252		2.4822e+001	19.3793		10.9119		2.5193e-002
 253		2.4921e+001	19.4570		10.9287		2.5186e-002
 254		2.5019e+001	19.5443		10.9435		2.5290e-002
 255		2.5118e+001	19.6234		10.9522		2.5436e-002
 256		2.5216e+001	19.6460		10.9562		2.5455e-002
 257		2.5314e+001	19.6722		10.9718		2.5473e-002
 258		2.5413e+001	19.6508		10.9754		2.5522e-002
 259		2.5512e+001	19.6302		10.9794		2.5571e-002
 260		2.5610e+001	19.6089		10.9782		2.5545e-002
 261		2.5709e+001	19.5594		10.9814		2.5679e-002
 262		2.5807e+001	19.5223		10.9846		2.5758e-002
 263		2.5906e+001	19.4708		10.9810		2.5776e-002
 264		2.6004e+001	19.4227		10.9726		2.5840e-002
 265		2.6102e+001	19.3629		10.9774		2.5881e-002
 266		2.6201e+001	19.2927		10.9686		2.6023e-002
 267		2.6299e+001	19.2220		10.9610		2.5922e-002
 268		2.6398e+001	19.1546		10.9590		2.5930e-002
 269		2.6497e+001	19.0955		10.9522		2.5971e-002
 270		2.6595e+001	19.0103		10.9526		2.5982e-002
 271		2.6694e+001	18.9470		10.9447		2.6008e-002
 272		2.6792e+001	18.8680		10.9315		2.5956e-002
 273		2.6890e+001	18.7999		10.9219		2.5926e-002
 274		2.6989e+001	18.7229		10.9131		2.5956e-002
 275		2.7087e+001	18.6398		10.9119		2.6176e-002
 276		2.7186e+001	18.5511		10.8996		2.5971e-002
 277		2.7285e+001	18.4982		10.8924		2.5971e-002
 278		2.7383e+001	18.4136		10.8844		2.5971e-002
 279		2.7482e+001	18.3422		10.8748		2.5952e-002
 280		2.7580e+001	18.2528		10.8689		2.5930e-002
 281		2.7679e+001	18.1848		10.8557		2.5941e-002
 282		2.7777e+001	18.0920		10.8445		2.5933e-002
 283		2.7875e+001	18.0287		10.8357		2.5814e-002
 284		2.7974e+001	17.9456		10.8326		2.5829e-002
 285		2.8073e+001	17.8844		10.8202		2.5814e-002
 286		2.8171e+001	17.7950		10.8150		2.5630e-002
 287		2.8270e+001	17.7284		10.7986		2.5746e-002
 288		2.8368e+001	17.6383		10.7899		2.5578e-002
 289		2.8467e+001	17.5696		10.7863		2.5672e-002
 290		2.8565e+001	17.4748		10.7763		2.5664e-002
 291		2.8663e+001	17.3943		10.7631		2.5593e-002
 292		2.8762e+001	17.3256		10.7548		2.5649e-002
 293		2.8860e+001	17.2637		10.7416		2.5608e-002
 294		2.8959e+001	17.1668		10.7348		2.5526e-002
 295		2.9058e+001	17.0864		10.7185		2.5455e-002
 296		2.9156e+001	17.0039		10.7165		2.5473e-002
 297		2.9255e+001	16.9304		10.6997		2.5331e-002
 298		2.9353e+001	16.8390		10.6881		2.5294e-002
 299		2.9451e+001	16.7640		10.6806		2.5346e-002
 300		2.9550e+001	16.7001		10.6650		2.5234e-002
 301		2.9648e+001	16.6156		10.6542		2.5361e-002
 302		2.9747e+001	16.5365		10.6438		2.5070e-002
 303		2.9846e+001	16.4637		10.6359		2.5178e-002
 304		2.9944e+001	16.3654		10.6283		2.5111e-002
 305		3.0043e+001	16.3090		10.6151		2.5002e-002
 306		3.0141e+001	16.2197		10.6004		2.4943e-002
 307		3.0240e+001	16.1386		10.5988		2.4920e-002
 308		3.0338e+001	16.0561		10.5768		2.4793e-002
 309		3.0436e+001	15.9867		10.5665		2.4834e-002
 310		3.0535e+001	15.8959		10.5605		2.4830e-002
 311		3.0634e+001	15.8382		10.5445		2.4744e-002
 312		3.0732e+001	15.7434		10.5381		2.4752e-002
 313		3.0831e+001	15.6698		10.5270		2.4700e-002
 314		3.0929e+001	15.5928		10.5158		2.4726e-002
 315		3.1028e+001	15.5083		10.4982		2.4393e-002
 316		3.1126e+001	15.4286		10.4903		2.4483e-002
 317		3.1224e+001	15.3612		10.4811		2.4382e-002
 318		3.1323e+001	15.2677		10.4651		2.4412e-002
 319		3.1422e+001	15.1914		10.4543		2.4296e-002
 320		3.1520e+001	15.1234		10.4428		2.4184e-002
 321		3.1619e+001	15.0471		10.4328		2.4154e-002
 322		3.1717e+001	14.9536		10.4152		2.4120e-002
 323		3.1816e+001	14.8670		10.4085		2.4124e-002
 324		3.1914e+001	14.8134		10.3897		2.4057e-002
 325		3.2013e+001	14.7282		10.3797		2.3903e-002
 326		3.2111e+001	14.6539		10.3702		2.3918e-002
 327		3.2209e+001	14.5756		10.3570		2.3885e-002
 328		3.2308e+001	14.4917		10.3486		2.3709e-002
 329		3.2407e+001	14.4141		10.3327		2.3687e-002
 330		3.2505e+001	14.3426		10.3175		2.3653e-002
 331		3.2603e+001	14.2580		10.3035		2.3559e-002
 332		3.2702e+001	14.1756		10.2900		2.3578e-002
 333		3.2801e+001	14.0965		10.2800		2.3447e-002
 334		3.2899e+001	14.0188		10.2640		2.3488e-002
 335		3.2998e+001	13.9439		10.2541		2.3387e-002
 336		3.3096e+001	13.8738		10.2389		2.3268e-002
 337		3.3194e+001	13.8023		10.2257		2.3201e-002
 338		3.3293e+001	13.7068		10.2166		2.3085e-002
 339		3.3392e+001	13.6284		10.1974		2.3107e-002
 340		3.3490e+001	13.5439		10.1882		2.2991e-002
 341		3.3589e+001	13.4779		10.1675		2.3006e-002
 342		3.3687e+001	13.3975		10.1575		2.2905e-002
 343		3.3785e+001	13.3150		10.1472		2.2845e-002
 344		3.3884e+001	13.2312		10.1284		2.2872e-002
 345		3.3983e+001	13.1624		10.1160		2.2744e-002
 346		3.4081e+001	13.0799		10.1017		2.2707e-002
 347		3.4179e+001	13.0050		10.0913		2.2636e-002
 348		3.4278e+001	12.9177		10.0725		2.2445e-002
 349		3.4377e+001	12.8511		10.0566		2.2475e-002
 350		3.4475e+001	12.7617		10.0446		2.2386e-002
 351		3.4574e+001	12.6827		10.0287		2.2315e-002
 352		3.4672e+001	12.6077		10.0179		2.2341e-002
 353		3.4770e+001	12.5370		9.9948		2.2247e-002
 354		3.4869e+001	12.4483		9.9828		2.2199e-002
 355		3.4968e+001	12.3830		9.9676		2.2143e-002
 356		3.5066e+001	12.2868		9.9592		2.2105e-002
 357		3.5164e+001	12.2270		9.9365		2.2064e-002
 358		3.5263e+001	12.1472		9.9241		2.1941e-002
 359		3.5361e+001	12.0599		9.9050		2.1851e-002
 360		3.5460e+001	11.9809		9.8946		2.1840e-002
 361		3.5559e+001	11.8964		9.8803		2.1772e-002
 362		3.5657e+001	11.8208		9.8551		2.1675e-002
 363		3.5755e+001	11.7362		9.8432		2.1593e-002
 364		3.5854e+001	11.6750		9.8288		2.1556e-002
 365		3.5953e+001	11.5822		9.8120		2.1443e-002
 366		3.6051e+001	11.5066		9.7961		2.1451e-002
 367		3.6150e+001	11.4393		9.7829		2.1372e-002
 368		3.6248e+001	11.3506		9.7626		2.1286e-002
 369		3.6346e+001	11.2839		9.7498		2.1245e-002
 370		3.6445e+001	11.1967		9.7287		2.1133e-002
 371		3.6544e+001	11.1224		9.7159		2.1002e-002
 372		3.6642e+001	11.0338		9.7019		2.0909e-002
 373		3.6740e+001	10.9623		9.6788		2.0872e-002
 374		3.6839e+001	10.8874		9.6580		2.0864e-002
 375		3.6938e+001	10.8028		9.6417		2.0763e-002
 376		3.7036e+001	10.7183		9.6305		2.0756e-002
 377		3.7135e+001	10.6385		9.6082		2.0606e-002
 378		3.7233e+001	10.5767		9.5898		2.0550e-002
 379		3.7331e+001	10.4846		9.5723		2.0505e-002
 380		3.7430e+001	10.4131		9.5511		2.0408e-002
 381		3.7529e+001	10.3354		9.5380		2.0329e-002
 382		3.7627e+001	10.2564		9.5172		2.0337e-002
 383		3.7725e+001	10.1767		9.5005		2.0258e-002
 384		3.7824e+001	10.1059		9.4737		2.0060e-002
 385		3.7922e+001	10.0179		9.4641		2.0071e-002
 386		3.8021e+001	9.9388		9.4438		1.9862e-002
 387		3.8120e+001	9.8625		9.4203		2.0012e-002
 388		3.8218e+001	9.7759		9.4031		1.9870e-002
 389		3.8316e+001	9.7031		9.3816		1.9870e-002
 390		3.8415e+001	9.6261		9.3632		1.9679e-002
 391		3.8514e+001	9.5532		9.3417		1.9653e-002
 392		3.8612e+001	9.4804		9.3229		1.9458e-002
 393		3.8711e+001	9.3945		9.3010		1.9503e-002
 394		3.8809e+001	9.3257		9.2786		1.9380e-002
 395		3.8907e+001	9.2247		9.2607		1.9372e-002
 396		3.9006e+001	9.1498		9.2403		1.9286e-002
 397		3.9105e+001	9.0680		9.2220		1.9114e-002
 398		3.9203e+001	9.0054		9.1988		1.9096e-002
 399		3.9301e+001	8.9429		9.1741		1.9043e-002
 400		3.9400e+001	8.8432		9.1534		1.8886e-002
 401		3.9499e+001	8.7717		9.1298		1.8800e-002
 402		3.9597e+001	8.6865		9.1095		1.8785e-002
 403		3.9696e+001	8.5944		9.0951		1.8662e-002
 404		3.9794e+001	8.5291		9.0676		1.8595e-002
 405		3.9892e+001	8.4501		9.0421		1.8535e-002
 406		3.9991e+001	8.3593		9.0245		1.8453e-002
 407		4.0090e+001	8.2989		8.9970		1.8311e-002
 408		4.0188e+001	8.2123		8.9778		1.8270e-002
 409		4.0286e+001	8.1325		8.9567		1.8176e-002
 410		4.0385e+001	8.0528		8.9272		1.8090e-002
 411		4.0483e+001	7.9937		8.9080		1.7967e-002
 412		4.0582e+001	7.8975		8.8833		1.7985e-002
 413		4.0681e+001	7.8308		8.8569		1.7772e-002
 414		4.0779e+001	7.7476		8.8294		1.7746e-002
 415		4.0877e+001	7.6734		8.8083		1.7728e-002
 416		4.0976e+001	7.5847		8.7795		1.7585e-002
 417		4.1075e+001	7.5187		8.7564		1.7634e-002
 418		4.1173e+001	7.4287		8.7325		1.7488e-002
 419		4.1272e+001	7.3565		8.7006		1.7432e-002
 420		4.1370e+001	7.2699		8.6814		1.7260e-002
 421		4.1468e+001	7.1950		8.6447		1.7204e-002
 422		4.1567e+001	7.1091		8.6271		1.7107e-002
 423		4.1666e+001	7.0287		8.5952		1.7073e-002
 424		4.1764e+001	6.9572		8.5661		1.6913e-002
 425		4.1862e+001	6.8857		8.5430		1.6864e-002
 426		4.1961e+001	6.8018		8.5103		1.6696e-002
 427		4.2060e+001	6.7338		8.4835		1.6606e-002
 428		4.2158e+001	6.6493		8.4484		1.6591e-002
 429		4.2257e+001	6.5695		8.4289		1.6468e-002
 430		4.2355e+001	6.4788		8.3993		1.6389e-002
 431		4.2453e+001	6.4142		8.3674		1.6404e-002
 432		4.2552e+001	6.3276		8.3347		1.6169e-002
 433		4.2651e+001	6.2671		8.3128		1.6038e-002
 434		4.2749e+001	6.1853		8.2745		1.5963e-002
 435		4.2847e+001	6.0987		8.2418		1.5982e-002
 436		4.2946e+001	6.0210		8.2146		1.5806e-002
 437		4.3044e+001	5.9351		8.1763		1.5694e-002
 438		4.3143e+001	5.8492		8.1508		1.5641e-002
 439		4.3242e+001	5.7722		8.1153		1.5477e-002
 440		4.3340e+001	5.6925		8.0814		1.5357e-002
 441		4.3438e+001	5.6238		8.0507		1.5249e-002
 442		4.3537e+001	5.5200		8.0152		1.5215e-002
 443		4.3636e+001	5.4574		7.9765		1.4957e-002
 444		4.3734e+001	5.3736		7.9449		1.4961e-002
 445		4.3833e+001	5.2932		7.9058		1.4931e-002
 446		4.3931e+001	5.2265		7.8707		1.4778e-002
 447		4.4029e+001	5.1447		7.8372		1.4684e-002
 448		4.4128e+001	5.0588		7.7961		1.4512e-002
 449		4.4227e+001	4.9873		7.7626		1.4486e-002
 450		4.4325e+001	4.9055		7.7259		1.4292e-002
 451		4.4423e+001	4.8127		7.6872		1.4180e-002
 452		4.4522e+001	4.7343		7.6433		1.4101e-002
 453		4.4621e+001	4.6732		7.6082		1.3963e-002
 454		4.4719e+001	4.5900		7.5707		1.3802e-002
 455		4.4818e+001	4.5178		7.5264		1.3754e-002
 456		4.4916e+001	4.4292		7.4877		1.3578e-002
 457		4.5014e+001	4.3591		7.4415		1.3455e-002
 458		4.5113e+001	4.2766		7.4028		1.3421e-002
 459		4.5212e+001	4.1872		7.3573		1.3298e-002
 460		4.5310e+001	4.1171		7.3106		1.3185e-002
 461		4.5408e+001	4.0285		7.2731		1.3062e-002
 462		4.5507e+001	3.9611		7.2292		1.2864e-002
 463		4.5605e+001	3.8821		7.1805		1.2823e-002
 464		4.5704e+001	3.8010		7.1387		1.2542e-002
 465		4.5803e+001	3.7295		7.0872		1.2494e-002
 466		4.5901e+001	3.6381		7.0413		1.2449e-002
 467		4.5999e+001	3.5666		6.9910		1.2307e-002
 468		4.6098e+001	3.4807		6.9412		1.2210e-002
 469		4.6197e+001	3.4112		6.8973		1.1948e-002
 470		4.6295e+001	3.3301		6.8438		1.1802e-002
 471		4.6394e+001	3.2580		6.7952		1.1858e-002
 472		4.6492e+001	3.1659		6.7365		1.1597e-002
 473		4.6590e+001	3.1033		6.6878		1.1447e-002
 474		4.6689e+001	3.0222		6.6368		1.1383e-002
 475		4.6788e+001	2.9445		6.5785		1.0897e-002
 476		4.6886e+001	2.8648		6.5271		1.1208e-002
 477		4.6984e+001	2.7913		6.4676		1.0961e-002
 478		4.7083e+001	2.6992		6.4094		1.0811e-002
 479		4.7182e+001	2.6105		6.3535		1.0744e-002
 480		4.7280e+001	2.5479		6.2889		1.0628e-002
 481		4.7379e+001	2.4730		6.2278		1.0471e-002
 482		4.7477e+001	2.3940		6.1724		1.0239e-002
 483		4.7575e+001	2.3081		6.1074		1.0064e-002
 484		4.7674e+001	2.2270		6.0439		9.9890e-003
 485		4.7773e+001	2.1548		5.9781		9.7722e-003
 486		4.7871e+001	2.0620		5.9147		9.7273e-003
 487		4.7969e+001	2.0015		5.8508		9.6526e-003
 488		4.8068e+001	1.9245		5.7802		9.5105e-003
 489		4.8166e+001	1.8427		5.7068		9.3198e-003
 490		4.8265e+001	1.7768		5.6378		9.0918e-003
 491		4.8364e+001	1.6805		5.5592		8.9684e-003
 492		4.8462e+001	1.6035		5.4910		8.8488e-003
 493		4.8560e+001	1.5389		5.4160		8.8039e-003
 494		4.8659e+001	1.4489		5.3358		8.6245e-003
 495		4.8758e+001	1.3657		5.2560		8.5011e-003
 496		4.8856e+001	1.3046		5.1762		8.2507e-003
 497		4.8955e+001	1.2248		5.0980		8.0862e-003
 498		4.9053e+001	1.1210		5.0094		7.9778e-003
 499		4.9151e+001	1.0523		4.9324		7.8506e-003
 500		4.9250e+001	0.9801		4.8371		7.5964e-003
 501		4.9349e+001	0.8942		4.7521		7.5105e-003
 502		4.9447e+001	0.8145		4.6616		7.4955e-003
 503		4.9545e+001	0.7403		4.5690		7.1889e-003
 504		4.9644e+001	0.6633		4.4764		7.0469e-003
 505		4.9743e+001	0.5725		4.3727		6.8974e-003
 506		4.9841e+001	0.5011		4.2766		6.7777e-003
 507		4.9940e+001	0.4323		4.1756		6.6095e-003
 508		5.0038e+001	0.3554		4.0655		6.5235e-003
 509		5.0136e+001	0.2646		3.9534		6.2506e-003
 510		5.0235e+001	0.1966		3.8537		6.2319e-003
 511		5.0334e+001	0.1251		3.7284		6.0413e-003
 512		5.0432e+001	0.0406		3.6123		5.7684e-003
 513		5.0531e+001	-0.0433		3.4958		5.6973e-003
 514		5.0629e+001	-0.1244		3.3781		5.4655e-003
 515		5.0727e+001	-0.1952		3.2537		5.3945e-003
 516		5.0826e+001	-0.2818		3.1248		5.3048e-003
 517		5.0925e+001	-0.3485		2.9951		5.1366e-003
 518		5.1023e+001	-0.4378		2.8599		5.0394e-003
 519		5.1121e+001	-0.5079		2.7227		4.8450e-003
 520		5.1220e+001	-0.6145		2.5754		4.7552e-003
 521		5.1319e+001	-0.6750		2.4290		4.5422e-003
 522		5.1417e+001	-0.7568		2.2718		4.3665e-003
 523		5.1516e+001	-0.8269		2.1166		4.2580e-003
 524		5.1614e+001	-0.8963		1.9535		4.1384e-003
 525		5.1712e+001	-0.9740		1.7791		3.9964e-003
 526		5.1811e+001	-1.0640		1.6048		3.8580e-003
 527		5.1910e+001	-1.1355		1.4193		3.9178e-003
 528		5.2008e+001	-1.2200		1.2334		3.6076e-003
 529		5.2106e+001	-1.3018		1.0478		3.5141e-003
 530		5.2205e+001	-1.3795		0.8707		3.4094e-003
 531		5.2304e+001	-1.4743		0.6684		3.2823e-003
 532		5.2402e+001	-1.5396		0.4674		3.1552e-003
 533		5.2501e+001	-1.6249		0.2719		3.0804e-003
 534		5.2599e+001	-1.6922		0.0664		3.0393e-003
 535		5.2697e+001	-1.7651		-0.1358		2.9309e-003
 536		5.2796e+001	-1.8537		-0.3437		2.8636e-003
 537		5.2895e+001	-1.9225		-0.5436		2.9122e-003
 538		5.2993e+001	-2.0077		-0.7458		2.7776e-003
 539		5.3092e+001	-2.0847		-0.9509		2.8300e-003
 540		5.3190e+001	-2.1692		-1.1460		2.7477e-003
 541		5.3288e+001	-2.2352		-1.3435		2.7851e-003
 542		5.3387e+001	-2.3252		-1.5382		2.7328e-003
 543		5.3486e+001	-2.4098		-1.7201		2.8075e-003
 544		5.3584e+001	-2.4854		-1.8988		2.7440e-003
 545		5.3682e+001	-2.5397		-2.0763		2.8823e-003
 546		5.3781e+001	-2.6352		-2.2519		2.9122e-003
 547		5.3880e+001	-2.7205		-2.4179		2.9085e-003
 548		5.3978e+001	-2.7968		-2.5814		3.0132e-003
 549		5.4077e+001	-2.8627		-2.7422		3.0393e-003
 550		5.4175e+001	-2.9425		-2.8958		3.0356e-003
 551		5.4273e+001	-3.0222		-3.0462		3.1739e-003
 552		5.4372e+001	-3.0971		-3.1910		3.3122e-003
 553		5.4471e+001	-3.1576		-3.3311		3.3272e-003
 554		5.4569e+001	-3.2690		-3.4739		3.4356e-003
 555		5.4667e+001	-3.3480		-3.6067		3.5777e-003
 556		5.4766e+001	-3.4270		-3.7396		3.5851e-003
 557		5.4865e+001	-3.4855		-3.8668		3.6711e-003
 558		5.4963e+001	-3.5851		-3.9905		4.0076e-003
 559		5.5062e+001	-3.6580		-4.1114		4.0936e-003
 560		5.5160e+001	-3.7253		-4.2243		4.1459e-003
 561		5.5258e+001	-3.8023		-4.3388		4.3291e-003
 562		5.5357e+001	-3.8931		-4.4573		4.3478e-003
 563		5.5456e+001	-3.9659		-4.5574		4.5422e-003
 564		5.5554e+001	-4.0436		-4.6628		4.5795e-003
 565		5.5653e+001	-4.1178		-4.7661		4.7179e-003
 566		5.5751e+001	-4.2140		-4.8598		4.9235e-003
 567		5.5849e+001	-4.2869		-4.9672		5.0917e-003
 568		5.5948e+001	-4.3680		-5.0517		5.2599e-003
 569		5.6047e+001	-4.4299		-5.1507		5.4132e-003
 570		5.6145e+001	-4.5062		-5.2416		5.5927e-003
 571		5.6243e+001	-4.5859		-5.3282		5.6487e-003
 572		5.6342e+001	-4.6704		-5.4116		5.8431e-003
 573		5.6441e+001	-4.7426		-5.4982		5.9702e-003
 574		5.6539e+001	-4.8374		-5.5799		6.0861e-003
 575		5.6638e+001	-4.9048		-5.6613		6.3889e-003
 576		5.6736e+001	-5.0024		-5.7391		6.5347e-003
 577		5.6834e+001	-5.0608		-5.8125		6.6581e-003
 578		5.6933e+001	-5.1371		-5.8879		6.8188e-003
 579		5.7032e+001	-5.2217		-5.9586		7.0394e-003
 580		5.7130e+001	-5.2932		-6.0356		7.1217e-003
 581		5.7228e+001	-5.3584		-6.1082		7.2562e-003
 582		5.7327e+001	-5.4677		-6.1692		7.4656e-003
 583		5.7426e+001	-5.5488		-6.2438		7.6226e-003
 584		5.7524e+001	-5.6148		-6.3060		7.8245e-003
 585		5.7623e+001	-5.6932		-6.3759		8.0936e-003
 586		5.7721e+001	-5.7894		-6.4321		8.1572e-003
 587		5.7819e+001	-5.8595		-6.4927		8.2993e-003
 588		5.7918e+001	-5.9282		-6.5554		8.4114e-003
 589		5.8017e+001	-6.0121		-6.6084		8.5684e-003
 590		5.8115e+001	-6.0939		-6.6659		8.8413e-003
 591		5.8214e+001	-6.1613		-6.7301		8.9759e-003
 592		5.8312e+001	-6.2437		-6.7788		9.0806e-003
 593		5.8410e+001	-6.3351		-6.8398		9.2638e-003
 594		5.8509e+001	-6.4149		-6.8929		9.4021e-003
 595		5.8608e+001	-6.4815		-6.9476		9.5554e-003
 596		5.8706e+001	-6.5661		-7.0010		9.6077e-003
 597		5.8804e+001	-6.6479		-7.0505		9.8395e-003
 598		5.8903e+001	-6.7242		-7.1035		9.9815e-003
 599		5.9002e+001	-6.7867		-7.1558		1.0124e-002
 600		5.9100e+001	-6.8754		-7.2017		1.0337e-002
 601		5.9199e+001	-6.9599		-7.2512		1.0434e-002
 602		5.9297e+001	-7.0390		-7.3006		1.0595e-002
 603		5.9395e+001	-7.1173		-7.3501		1.0714e-002
 604		5.9494e+001	-7.2122		-7.3920		1.0972e-002
 605		5.9593e+001	-7.2740		-7.4395		1.1006e-002
 606		5.9691e+001	-7.3551		-7.4877		1.1133e-002
 607		5.9789e+001	-7.4273		-7.5304		1.1290e-002
 608		5.9888e+001	-7.5119		-7.5771		1.1443e-002
 609		5.9986e+001	-7.5792		-7.6138		1.1540e-002
 610		6.0085e+001	-7.6638		-7.6569		1.1679e-002
 611		6.0184e+001	-7.7387		-7.6996		1.1892e-002
 612		6.0282e+001	-7.8335		-7.7415		1.2109e-002
 613		6.0380e+001	-7.8885		-7.7814		1.2202e-002
 614		6.0479e+001	-7.9717		-7.8229		1.2232e-002
 615		6.0578e+001	-8.0494		-7.8560		1.2438e-002
 616		6.0676e+001	-8.1360		-7.9011		1.2512e-002
 617		6.0775e+001	-8.2109		-7.9370		1.2718e-002
 618		6.0873e+001	-8.2913		-7.9784		1.2815e-002
 619		6.0971e+001	-8.3525		-8.0140		1.3010e-002
 620		6.1070e+001	-8.4631		-8.0511		1.3148e-002
 621		6.1169e+001	-8.5236		-8.0882		1.3129e-002
 622		6.1267e+001	-8.5944		-8.1277		1.3369e-002
 623		6.1365e+001	-8.6838		-8.1604		1.3492e-002
 624		6.1464e+001	-8.7587		-8.1979		1.3593e-002
 625		6.1563e+001	-8.8350		-8.2282		1.3724e-002
 626		6.1661e+001	-8.9147		-8.2637		1.3888e-002
 627		6.1760e+001	-8.9834		-8.2992		1.4034e-002
 628		6.1858e+001	-9.0755		-8.3275		1.4296e-002
 629		6.1956e+001	-9.1511		-8.3646		1.4255e-002
 630		6.2055e+001	-9.2247		-8.3989		1.4322e-002
 631		6.2154e+001	-9.3065		-8.4277		1.4486e-002
 632		6.2252e+001	-9.3924		-8.4632		1.4542e-002
 633		6.2350e+001	-9.4577		-8.4923		1.4722e-002
 634		6.2449e+001	-9.5367		-8.5234		1.4819e-002
 635		6.2547e+001	-9.6199		-8.5553		1.4800e-002
 636		6.2646e+001	-9.6990		-8.5829		1.5092e-002
 637		6.2745e+001	-9.7835		-8.6160		1.5155e-002
 638		6.2843e+001	-9.8564		-8.6455		1.5234e-002
 639		6.2941e+001	-9.9333		-8.6750		1.5421e-002
 640		6.3040e+001	-10.0268		-8.7057		1.5511e-002
 641		6.3139e+001	-10.0852		-8.7353		1.5541e-002
 642		6.3237e+001	-10.1698		-8.7672		1.5802e-002
 643		6.3336e+001	-10.2502		-8.7859		1.5877e-002
 644		6.3434e+001	-10.3375		-8.8230		1.5959e-002
 645		6.3532e+001	-10.4117		-8.8414		1.6071e-002
 646		6.3631e+001	-10.4880		-8.8705		1.6210e-002
 647		6.3730e+001	-10.5650		-8.8992		1.6363e-002
 648		6.3828e+001	-10.6454		-8.9272		1.6370e-002
 649		6.3926e+001	-10.7121		-8.9491		1.6464e-002
 650		6.4025e+001	-10.8076		-8.9794		1.6584e-002
 651		6.4124e+001	-10.8743		-9.0054		1.6688e-002
 652		6.4222e+001	-10.9726		-9.0309		1.6759e-002
 653		6.4320e+001	-11.0351		-9.0568		1.6886e-002
 654		6.4419e+001	-11.1176		-9.0780		1.7058e-002
 655		6.4517e+001	-11.1987		-9.1035		1.6969e-002
 656		6.4616e+001	-11.2619		-9.1350		1.7234e-002
 657		6.4715e+001	-11.3403		-9.1558		1.7275e-002
 658		6.4813e+001	-11.4503		-9.1773		1.7485e-002
 659		6.4912e+001	-11.5018		-9.2024		1.7503e-002
 660		6.5010e+001	-11.5774		-9.2236		1.7911e-002
 661		6.5109e+001	-11.6455		-9.2519		1.7671e-002
 662		6.5207e+001	-11.7465		-9.2766		1.7799e-002
 663		6.5305e+001	-11.8166		-9.2942		1.7907e-002
 664		6.5404e+001	-11.8970		-9.3165		1.7978e-002
 665		6.5502e+001	-11.9685		-9.3421		1.7993e-002
 666		6.5601e+001	-12.0441		-9.3664		1.8038e-002
 667		6.5700e+001	-12.1362		-9.3867		1.8326e-002
 668		6.5798e+001	-12.2194		-9.4111		1.8400e-002
 669		6.5897e+001	-12.2916		-9.4334		1.8430e-002
 670		6.5995e+001	-12.3747		-9.4554		1.8505e-002
 671		6.6094e+001	-12.4339		-9.4765		1.8531e-002
 672		6.6192e+001	-12.5225		-9.5012		1.8707e-002
 673		6.6290e+001	-12.6016		-9.5200		1.8696e-002
 674		6.6389e+001	-12.6799		-9.5380		1.8819e-002
 675		6.6487e+001	-12.7617		-9.5563		1.8696e-002
 676		6.6586e+001	-12.8387		-9.5842		1.9081e-002
 677		6.6685e+001	-12.9184		-9.6006		1.9193e-002
 678		6.6783e+001	-12.9961		-9.6257		1.9350e-002
 679		6.6882e+001	-13.0648		-9.6425		1.9421e-002
 680		6.6980e+001	-13.1583		-9.6596		1.9316e-002
 681		6.7079e+001	-13.2263		-9.6772		1.9559e-002
 682		6.7177e+001	-13.3095		-9.7059		1.9567e-002
 683		6.7275e+001	-13.3941		-9.7211		1.9559e-002
 684		6.7374e+001	-13.4600		-9.7398		1.9802e-002
 685		6.7472e+001	-13.5453		-9.7594		1.9843e-002
 686		6.7571e+001	-13.6195		-9.7837		1.9967e-002
 687		6.7669e+001	-13.7212		-9.7965		1.9922e-002
 688		6.7768e+001	-13.7735		-9.8140		2.0128e-002
 689		6.7867e+001	-13.8484		-9.8336		2.0184e-002
 690		6.7965e+001	-13.9370		-9.8539		2.0322e-002
 691		6.8064e+001	-14.0092		-9.8699		2.0292e-002
 692		6.8162e+001	-14.0938		-9.8958		2.0445e-002
 693		6.8260e+001	-14.1701		-9.9046		2.0453e-002
 694		6.8359e+001	-14.2395		-9.9305		2.0348e-002
 695		6.8457e+001	-14.3206		-9.9433		2.0557e-002
 696		6.8556e+001	-14.4120		-9.9624		2.0815e-002
 697		6.8654e+001	-14.4684		-9.9812		2.0901e-002
 698		6.8753e+001	-14.5673		-9.9952		2.0916e-002
 699		6.8852e+001	-14.6505		-10.0155		2.0987e-002
 700		6.8950e+001	-14.7179		-10.0358		2.1002e-002
 701		6.9049e+001	-14.7942		-10.0514		2.1156e-002
 702		6.9147e+001	-14.8533		-10.0714		2.1163e-002
 703		6.9246e+001	-14.9474		-10.0841		2.1331e-002
 704		6.9344e+001	-15.0382		-10.1017		2.1387e-002
 705		6.9442e+001	-15.1000		-10.1256		2.1451e-002
 706		6.9541e+001	-15.1983		-10.1372		2.1559e-002
 707		6.9639e+001	-15.2657		-10.1571		2.1660e-002
 708		6.9738e+001	-15.3413		-10.1715		2.1675e-002
 709		6.9837e+001	-15.4299		-10.1851		2.1746e-002
 710		6.9935e+001	-15.4918		-10.2002		2.1709e-002
 711		7.0034e+001	-15.5860		-10.2190		2.1851e-002
 712		7.0132e+001	-15.6581		-10.2361		2.2034e-002
 713		7.0231e+001	-15.7296		-10.2521		2.2090e-002
 714		7.0329e+001	-15.8155		-10.2636		2.2187e-002
 715		7.0427e+001	-15.9014		-10.2808		2.2243e-002
 716		7.0526e+001	-15.9743		-10.3011		2.2270e-002
 717		7.0624e+001	-16.0417		-10.3107		2.2475e-002
 718		7.0723e+001	-16.1235		-10.3295		2.2460e-002
 719		7.0822e+001	-16.2107		-10.3430		2.2546e-002
 720		7.0920e+001	-16.2870		-10.3534		2.2651e-002
 721		7.1019e+001	-16.3565		-10.3766		2.2655e-002
 722		7.1117e+001	-16.4383		-10.3869		2.2729e-002
 723		7.1216e+001	-16.5297		-10.4073		2.2872e-002
 724		7.1314e+001	-16.5970		-10.4200		2.2842e-002
 725		7.1412e+001	-16.6719		-10.4336		2.2887e-002
 726		7.1511e+001	-16.7695		-10.4528		2.2961e-002
 727		7.1609e+001	-16.8527		-10.4611		2.3115e-002
 728		7.1708e+001	-16.9235		-10.4775		2.3148e-002
 729		7.1807e+001	-16.9984		-10.4926		2.3234e-002
 730		7.1905e+001	-17.0740		-10.5078		2.3301e-002
 731		7.2004e+001	-17.1531		-10.5238		2.3440e-002
 732		7.2102e+001	-17.2321		-10.5389		2.3425e-002
 733		7.2201e+001	-17.3174		-10.5517		2.3466e-002
 734		7.2299e+001	-17.3909		-10.5688		2.3608e-002
 735		7.2397e+001	-17.4699		-10.5836		2.3642e-002
 736		7.2496e+001	-17.5620		-10.5968		2.3750e-002
 737		7.2594e+001	-17.6177		-10.6107		2.3724e-002
 738		7.2693e+001	-17.7029		-10.6227		2.3885e-002
 739		7.2791e+001	-17.7957		-10.6359		2.3840e-002
 740		7.2890e+001	-17.8762		-10.6454		2.4038e-002
 741		7.2989e+001	-17.9414		-10.6662		2.3974e-002
 742		7.3087e+001	-18.0260		-10.6758		2.4090e-002
 743		7.3186e+001	-18.0968		-10.6929		2.4277e-002
 744		7.3284e+001	-18.1745		-10.7037		2.4292e-002
 745		7.3382e+001	-18.2494		-10.7181		2.4270e-002
 746		7.3481e+001	-18.3394		-10.7304		2.4352e-002
 747		7.3579e+001	-18.3999		-10.7404		2.4288e-002
 748		7.3678e+001	-18.4899		-10.7556		2.4543e-002
 749		7.3776e+001	-18.5724		-10.7703		2.4625e-002
 750		7.3875e+001	-18.6460		-10.7815		2.4692e-002
 751		7.3974e+001	-18.7236		-10.7966		2.4771e-002
 752		7.4072e+001	-18.8054		-10.8102		2.4786e-002
 753		7.4171e+001	-18.8797		-10.8182		2.4913e-002
 754		7.4269e+001	-18.9422		-10.8349		2.4961e-002
 755		7.4368e+001	-19.0453		-10.8417		2.5073e-002
 756		7.4466e+001	-19.1195		-10.8601		2.5328e-002
 757		7.4564e+001	-19.1910		-10.8732		2.5216e-002
 758		7.4663e+001	-19.2790		-10.8864		2.5268e-002
 759		7.4761e+001	-19.3519		-10.8948		2.5387e-002
 760		7.4860e+001	-19.4295		-10.9099		2.5331e-002
 761		7.4959e+001	-19.5106		-10.9231		2.5432e-002
 762		7.5057e+001	-19.5959		-10.9367		2.5462e-002
 763		7.5156e+001	-19.6687		-10.9451		2.5582e-002
 764		7.5254e+001	-19.7017		-10.9590		2.5642e-002
 765		7.5353e+001	-19.7134		-10.9650		2.5709e-002
 766		7.5451e+001	-19.7093		-10.9714		2.5791e-002
 767		7.5549e+001	-19.6804		-10.9758		2.5885e-002
 768		7.5648e+001	-19.6577		-10.9762		2.5746e-002
 769		7.5746e+001	-19.5986		-10.9846		2.5918e-002
 770		7.5845e+001	-19.5656		-10.9806		2.5967e-002
 771		7.5944e+001	-19.5196		-10.9778		2.6001e-002
 772		7.6042e+001	-19.4653		-10.9762		2.6090e-002
 773		7.6141e+001	-19.3986		-10.9798		2.6083e-002
 774		7.6239e+001	-19.3464		-10.9750		2.6116e-002
 775		7.6338e+001	-19.2769		-10.9718		2.6251e-002
 776		7.6436e+001	-19.2075		-10.9654		2.6247e-002
 777		7.6534e+001	-19.1216		-10.9614		2.6232e-002
 778		7.6633e+001	-19.0577		-10.9510		2.6225e-002
 779		7.6731e+001	-18.9876		-10.9463		2.6367e-002
 780		7.6830e+001	-18.9140		-10.9423		2.6277e-002
 781		7.6929e+001	-18.8357		-10.9311		2.6255e-002
 782		7.7027e+001	-18.7752		-10.9187		2.6285e-002
 783		7.7126e+001	-18.6906		-10.9203		2.6292e-002
 784		7.7224e+001	-18.6185		-10.9111		2.6202e-002
 785		7.7323e+001	-18.5332		-10.9000		2.6277e-002
 786		7.7421e+001	-18.4590		-10.8928		2.6378e-002
 787		7.7519e+001	-18.3765		-10.8844		2.6292e-002
 788		7.7618e+001	-18.3160		-10.8780		2.6270e-002
 789		7.7716e+001	-18.2233		-10.8661		2.6131e-002
 790		7.7815e+001	-18.1476		-10.8621		2.6303e-002
 791		7.7913e+001	-18.0775		-10.8501		2.6169e-002
 792		7.8012e+001	-18.0012		-10.8389		2.6188e-002
 793		7.8111e+001	-17.9181		-10.8349		2.6180e-002
 794		7.8209e+001	-17.8397		-10.8230		2.6158e-002
 795		7.8308e+001	-17.7717		-10.8130		2.6244e-002
 796		7.8406e+001	-17.6906		-10.7966		2.5967e-002
 797		7.8504e+001	-17.6122		-10.7919		2.6038e-002
 798		7.8603e+001	-17.5394		-10.7863		2.5918e-002
 799		7.8701e+001	-17.4638		-10.7727		2.6023e-002
 800		7.8800e+001	-17.3627		-10.7651		2.5978e-002
 801		7.8898e+001	-17.2775		-10.7568		2.5959e-002
 802		7.8997e+001	-17.2211		-10.7492		2.5930e-002
 803		7.9096e+001	-17.1325		-10.7404		2.5900e-002
 804		7.9194e+001	-17.0596		-10.7200		2.6019e-002
 805		7.9293e+001	-16.9593		-10.7165		2.5821e-002
 806		7.9391e+001	-16.8995		-10.6989		2.5802e-002
 807		7.9490e+001	-16.8293		-10.6945		2.5728e-002
 808		7.9588e+001	-16.7366		-10.6837		2.5720e-002
 809		7.9686e+001	-16.6493		-10.6686		2.5589e-002
 810		7.9785e+001	-16.5867		-10.6594		2.5545e-002
 811		7.9883e+001	-16.5090		-10.6427		2.5447e-002
 812		7.9982e+001	-16.4341		-10.6411		2.5545e-002
 813		8.0081e+001	-16.3345		-10.6271		2.5432e-002
 814		8.0179e+001	-16.2644		-10.6239		2.5380e-002
 815		8.0278e+001	-16.1743		-10.6083		2.5440e-002
 816		8.0376e+001	-16.1049		-10.5996		2.5335e-002
 817		8.0475e+001	-16.0355		-10.5844		2.5204e-002
 818		8.0573e+001	-15.9447		-10.5740		2.5242e-002
 819		8.0671e+001	-15.8403		-10.5621		2.5130e-002
 820		8.0770e+001	-15.7908		-10.5513		2.5081e-002
 821		8.0868e+001	-15.7062		-10.5369		2.5126e-002
 822		8.0967e+001	-15.6485		-10.5250		2.5062e-002
 823		8.1066e+001	-15.5695		-10.5218		2.5111e-002
 824		8.1164e+001	-15.4787		-10.5094		2.5002e-002
 825		8.1263e+001	-15.3908		-10.4911		2.4860e-002
 826		8.1361e+001	-15.3371		-10.4803		2.4857e-002
 827		8.1460e+001	-15.2375		-10.4739		2.4771e-002
 828		8.1558e+001	-15.1715		-10.4615		2.4804e-002
 829		8.1656e+001	-15.0787		-10.4476		2.4659e-002
 830		8.1755e+001	-15.0141		-10.4364		2.4688e-002
 831		8.1853e+001	-14.9172		-10.4192		2.4584e-002
 832		8.1952e+001	-14.8636		-10.4121		2.4498e-002
 833		8.2051e+001	-14.7612		-10.4001		2.4408e-002
 834		8.2149e+001	-14.6904		-10.3861		2.4333e-002
 835		8.2248e+001	-14.6196		-10.3750		2.4322e-002
 836		8.2346e+001	-14.5467		-10.3562		2.4244e-002
 837		8.2445e+001	-14.4649		-10.3506		2.4281e-002
 838		8.2543e+001	-14.3790		-10.3335		2.4214e-002
 839		8.2641e+001	-14.2979		-10.3255		2.4109e-002
 840		8.2740e+001	-14.2250		-10.3075		2.4075e-002
 841		8.2838e+001	-14.1405		-10.3007		2.4090e-002
 842		8.2937e+001	-14.0731		-10.2864		2.3941e-002
 843		8.3035e+001	-13.9893		-10.2700		2.3937e-002
 844		8.3134e+001	-13.9082		-10.2585		2.3825e-002
 845		8.3233e+001	-13.8388		-10.2505		2.3754e-002
 846		8.3331e+001	-13.7480		-10.2309		2.4217e-002
 847		8.3430e+001	-13.6772		-10.2174		2.3642e-002
 848		8.3528e+001	-13.6236		-10.2066		2.3608e-002
 849		8.3626e+001	-13.5102		-10.1922		2.3492e-002
 850		8.3725e+001	-13.4408		-10.1775		2.3444e-002
 851		8.3823e+001	-13.3542		-10.1643		2.3462e-002
 852		8.3922e+001	-13.2841		-10.1511		2.3380e-002
 853		8.4020e+001	-13.2037		-10.1356		2.3339e-002
 854		8.4119e+001	-13.1336		-10.1204		2.3324e-002
 855		8.4218e+001	-13.0277		-10.1085		2.2999e-002
 856		8.4316e+001	-12.9748		-10.0957		2.3040e-002
 857		8.4415e+001	-12.8909		-10.0745		2.3066e-002
 858		8.4513e+001	-12.8146		-10.0638		2.2958e-002
 859		8.4612e+001	-12.7301		-10.0518		2.2958e-002
 860		8.4710e+001	-12.6586		-10.0354		2.2872e-002
 861		8.4808e+001	-12.5720		-10.0195		2.2744e-002
 862		8.4907e+001	-12.4978		-10.0095		2.2752e-002
 863		8.5005e+001	-12.4339		-9.9876		2.2621e-002
 864		8.5104e+001	-12.3445		-9.9808		2.2576e-002
 865		8.5203e+001	-12.2510		-9.9632		2.2535e-002
 866		8.5301e+001	-12.1837		-9.9493		2.2442e-002
 867		8.5400e+001	-12.1012		-9.9313		2.2367e-002
 868		8.5498e+001	-12.0228		-9.9174		2.2423e-002
 869		8.5597e+001	-11.9548		-9.9042		2.2199e-002
 870		8.5695e+001	-11.8696		-9.8803		2.2176e-002
 871		8.5793e+001	-11.7926		-9.8683		2.2008e-002
 872		8.5892e+001	-11.7170		-9.8515		2.2042e-002
 873		8.5990e+001	-11.6214		-9.8332		2.1903e-002
 874		8.6089e+001	-11.5603		-9.8224		2.1582e-002
 875		8.6188e+001	-11.4695		-9.8056		2.1690e-002
 876		8.6286e+001	-11.3994		-9.7893		2.1877e-002
 877		8.6385e+001	-11.3107		-9.7701		2.1600e-002
 878		8.6483e+001	-11.2365		-9.7546		2.1567e-002
 879		8.6582e+001	-11.1685		-9.7354		2.1563e-002
 880		8.6680e+001	-11.0936		-9.7227		2.1739e-002
 881		8.6778e+001	-10.9980		-9.7067		2.1324e-002
 882		8.6877e+001	-10.9265		-9.6904		2.1279e-002
 883		8.6975e+001	-10.8667		-9.6724		2.1096e-002
 884		8.7074e+001	-10.7684		-9.6536		2.1073e-002
 885		8.7172e+001	-10.6818		-9.6437		2.1073e-002
 886		8.7271e+001	-10.6200		-9.6177		2.0980e-002
 887		8.7370e+001	-10.5389		-9.5978		2.0931e-002
 888		8.7468e+001	-10.4509		-9.5862		2.0756e-002
 889		8.7567e+001	-10.3760		-9.5615		2.0718e-002
 890		8.7665e+001	-10.3052		-9.5435		2.0714e-002
 891		8.7763e+001	-10.2255		-9.5320		2.0543e-002
 892		8.7862e+001	-10.1464		-9.5100		2.0554e-002
 893		8.7960e+001	-10.0660		-9.4925		2.0520e-002
 894		8.8059e+001	-9.9869		-9.4697		2.0438e-002
 895		8.8157e+001	-9.9127		-9.4546		2.0356e-002
 896		8.8256e+001	-9.8316		-9.4294		2.0086e-002
 897		8.8355e+001	-9.7368		-9.4103		2.0154e-002
 898		8.8453e+001	-9.6852		-9.3939		2.0071e-002
 899		8.8552e+001	-9.5917		-9.3744		1.9974e-002
 900		8.8650e+001	-9.5251		-9.3560		2.0004e-002
 901		8.8749e+001	-9.4254		-9.3321		1.9937e-002
 902		8.8847e+001	-9.3491		-9.3113		1.9739e-002
 903		8.8945e+001	-9.2824		-9.2934		1.9746e-002
 904		8.9044e+001	-9.2068		-9.2738		1.9683e-002
 905		8.9142e+001	-9.1147		-9.2579		1.9503e-002
 906		8.9241e+001	-9.0535		-9.2336		1.9417e-002
 907		8.9340e+001	-8.9608		-9.2068		1.9365e-002
 908		8.9438e+001	-8.8913		-9.1893		1.9328e-002
 909		8.9537e+001	-8.8102		-9.1669		1.9238e-002
 910		8.9635e+001	-8.7236		-9.1462		1.9081e-002
 911		8.9734e+001	-8.6542		-9.1246		1.8950e-002
 912		8.9832e+001	-8.5759		-9.1015		1.9040e-002
 913		8.9930e+001	-8.4968		-9.0816		1.8875e-002
 914		9.0029e+001	-8.4171		-9.0556		1.8789e-002
 915		9.0127e+001	-8.3367		-9.0365		1.8752e-002
 916		9.0226e+001	-8.2645		-9.0145		1.8621e-002
 917		9.0325e+001	-8.1841		-8.9894		1.8501e-002
 918		9.0423e+001	-8.1030		-8.9675		1.8427e-002
 919		9.0522e+001	-8.0342		-8.9431		1.8468e-002
 920		9.0620e+001	-7.9456		-8.9196		1.8333e-002
 921		9.0719e+001	-7.8562		-8.8901		1.8199e-002
 922		9.0817e+001	-7.7971		-8.8741		1.8199e-002
 923		9.0915e+001	-7.7132		-8.8478		1.8128e-002
 924		9.1014e+001	-7.6466		-8.8218		1.8116e-002
 925		9.1112e+001	-7.5538		-8.7923		1.7888e-002
 926		9.1211e+001	-7.4775		-8.7728		1.7709e-002
 927		9.1310e+001	-7.4012		-8.7440		1.7761e-002
 928		9.1408e+001	-7.3029		-8.7177		1.7638e-002
 929		9.1507e+001	-7.2328		-8.6962		1.7526e-002
 930		9.1605e+001	-7.1586		-8.6615		1.7447e-002
 931		9.1704e+001	-7.0747		-8.6395		1.7354e-002
 932		9.1802e+001	-7.0074		-8.6140		1.7275e-002
 933		9.1900e+001	-6.9208		-8.5849		1.7085e-002
 934		9.1999e+001	-6.8493		-8.5565		1.7103e-002
 935		9.2097e+001	-6.7634		-8.5270		1.6797e-002
 936		9.2196e+001	-6.6912		-8.5003		1.6879e-002
 937		9.2294e+001	-6.6073		-8.4696		1.6800e-002
 938		9.2393e+001	-6.5413		-8.4452		1.6744e-002
 939		9.2492e+001	-6.4541		-8.4089		1.6587e-002
 940		9.2590e+001	-6.3654		-8.3814		1.6430e-002
 941		9.2689e+001	-6.2932		-8.3571		1.6337e-002
 942		9.2787e+001	-6.2162		-8.3200		1.6288e-002
 943		9.2885e+001	-6.1289		-8.2964		1.6228e-002
 944		9.2984e+001	-6.0616		-8.2633		1.6101e-002
 945		9.3082e+001	-5.9832		-8.2354		1.5989e-002
 946		9.3181e+001	-5.9035		-8.1991		1.5948e-002
 947		9.3279e+001	-5.8231		-8.1644		1.5802e-002
 948		9.3378e+001	-5.7385		-8.1372		1.5679e-002
 949		9.3477e+001	-5.6526		-8.0981		1.5604e-002
 950		9.3575e+001	-5.5818		-8.0682		1.5496e-002
 951		9.3674e+001	-5.5069		-8.0331		1.5451e-002
 952		9.3772e+001	-5.4299		-8.0012		1.5313e-002
 953		9.3871e+001	-5.3378		-7.9589		1.5182e-002
 954		9.3969e+001	-5.2691		-7.9270		1.4898e-002
 955		9.4067e+001	-5.1846		-7.8911		1.4942e-002
 956		9.4166e+001	-5.0966		-7.8568		1.4912e-002
 957		9.4264e+001	-5.0347		-7.8133		1.4737e-002
 958		9.4363e+001	-4.9522		-7.7830		1.4748e-002
 959		9.4462e+001	-4.8753		-7.7407		1.4610e-002
 960		9.4560e+001	-4.7969		-7.7028		1.4456e-002
 961		9.4659e+001	-4.7034		-7.6665		1.4400e-002
 962		9.4757e+001	-4.6306		-7.6222		1.4221e-002
 963		9.4856e+001	-4.5508		-7.5839		1.4075e-002
 964		9.4954e+001	-4.4814		-7.5448		1.4015e-002
 965		9.5052e+001	-4.3941		-7.5061		1.3911e-002
 966		9.5151e+001	-4.3254		-7.4622		1.3847e-002
 967		9.5249e+001	-4.2395		-7.4203		1.3720e-002
 968		9.5348e+001	-4.1694		-7.3804		1.3552e-002
 969		9.5447e+001	-4.0903		-7.3353		1.3455e-002
 970		9.5545e+001	-4.0037		-7.2954		1.3361e-002
 971		9.5644e+001	-3.9288		-7.2448		1.3294e-002
 972		9.5742e+001	-3.8525		-7.2065		1.3103e-002
 973		9.5841e+001	-3.7611		-7.1598		1.3002e-002
 974		9.5939e+001	-3.6834		-7.1163		1.2924e-002
 975		9.6037e+001	-3.6044		-7.0640		1.2845e-002
 976		9.6136e+001	-3.5336		-7.0142		1.2677e-002
 977		9.6234e+001	-3.4504		-6.9707		1.2561e-002
 978		9.6333e+001	-3.3865		-6.9216		1.2423e-002
 979		9.6432e+001	-3.3033		-6.8753		1.2075e-002
 980		9.6530e+001	-3.2263		-6.8267		1.2139e-002
 981		9.6629e+001	-3.1411		-6.7676		1.2094e-002
 982		9.6727e+001	-3.0621		-6.7182		1.1967e-002
 983		9.6826e+001	-2.9789		-6.6623		1.1869e-002
 984		9.6924e+001	-2.9109		-6.6088		1.1754e-002
 985		9.7022e+001	-2.8126		-6.5530		1.1604e-002
 986		9.7121e+001	-2.7590		-6.4975		1.1481e-002
 987		9.7219e+001	-2.6675		-6.4393		1.1148e-002
 988		9.7318e+001	-2.5954		-6.3790		1.1133e-002
 989		9.7416e+001	-2.5005		-6.3196		1.1021e-002
 990		9.7515e+001	-2.4345		-6.2550		1.0924e-002
 991		9.7614e+001	-2.3603		-6.1931		1.0853e-002
 992		9.7712e+001	-2.2861		-6.1265		1.0669e-002
 993		9.7811e+001	-2.1898		-6.0607		1.0479e-002
 994		9.7909e+001	-2.1142		-5.9945		1.0296e-002
 995		9.8007e+001	-2.0407		-5.9278		1.0221e-002
 996		9.8106e+001	-1.9644		-5.8568		1.0094e-002
 997		9.8204e+001	-1.8826		-5.7898		9.9180e-003
 998		9.8303e+001	-1.8118		-5.7152		9.8357e-003
 999		9.8401e+001	-1.7293		-5.6446		9.7049e-003
1000		9.8500e+001	-1.6578		-5.5728		9.5105e-003
1001		9.8599e+001	-1.5706		-5.4978		9.4096e-003
1002		9.8697e+001	-1.5004		-5.4279		9.1180e-003
1003		9.8796e+001	-1.4049		-5.3545		9.1479e-003
1004		9.8894e+001	-1.3375		-5.2680		8.9348e-003
1005		9.8993e+001	-1.2537		-5.2009		8.9198e-003
1006		9.9091e+001	-1.1898		-5.1200		8.6731e-003
1007		9.9189e+001	-1.1059		-5.0274		8.6507e-003
1008		9.9288e+001	-1.0331		-4.9404		8.3292e-003
1009		9.9386e+001	-0.9396		-4.8511		8.2282e-003
1010		9.9485e+001	-0.8873		-4.7585		8.1310e-003
1011		9.9584e+001	-0.7849		-4.6671		7.8656e-003
1012		9.9682e+001	-0.7066		-4.5694		7.8320e-003
1013		9.9781e+001	-0.6165		-4.4685		7.6413e-003
1014		9.9879e+001	-0.5464		-4.3727		7.4843e-003
1015		9.9978e+001	-0.4763		-4.2754		7.4207e-003
1016		1.0008e+002	-0.3925		-4.1629		7.2039e-003
1017		1.0017e+002	-0.2997		-4.0563		6.9946e-003

PMax (µC/cm2):		1.10e+001
Pr (µC/cm2):		3.56e+000
-Pr (µC/cm2):		-4.06e+000
Vc:			2.25e+002
-Vc:			-1.90e+002
C (Max-Eff) (nF):	4.97e+000
Vert. Eccentricity (µC/cm2):	-2.50e-001

Horiz. Eccentricity (Volts):	1.71e+001

Offset (µC/cm2):	1.73e+000



Hysteresis Version: 4.6.11 - Radiant Technologies, Inc., 1999 - 12/12/11

»»»»»»»»»»»»»»»»»»»»»»»»»»»»»»»»»»»» Hysteresis ««««««««««««««««««««««««««««««««««««
»»»  Version:			4.6.11
»»»  Vision Version:		4.6.5 (R)
»»»  Vision Compiled:		7 December 2011
»»»  Driver Version:		4.6.17
»»»  Tester Name:		PPM21211-813
»»»  Tester S/N:		PPM21211-813                    
»»»  Internal Amp Type:		No Internal Amp
»»»  Internal Amp S/N:		100000
»»»  Execution Count:		0
»»»»»»»»»»»»»»»»»»»»»»»»»»»»»»»»»»»»»»»»»»««««««««««««««««««««««««««««««««««««««««««

Stored:				5/16/2024 - 12:17:37
Configured:			05/16/24 12:00:07 PM
Executed:			05/16/24 12:16:33 PM

»»»»»»»»»»»»»»»»»»»»»»»»»»»»»»»»»»» Sample Info ««««««««««««««««««««««««««««««««««««
Sample Name:			
Lot Name:			
Wafer Name:			
Die Row/Column:			0/0
Capacitor Number:		0
Sample Area (cm2):		1.01e+000
Sample Thickness (µm):		1.11e+003

Mux Loop Adjustment:		Disabled

Amplifier:			High Voltage (HVA)
HVI Channel/Port:		1/1
Drive Gain Factor:			1000.00r
Drive Voltage Limit:			4000.00r

»»»»»»»»»»»»»»»»»»»»»»»»»»»»»»»»»»» Tester Info «««««««««««««««««««««««««««««««««««
Tester Name:			PPM21211-813
Tester Serial Number:		PPM21211-813                    
Return Signal Amp. Level:	0.00019

»»»»»»»»»»»»»»»»»»»»»»»»»»»»»»»» Hysteresis Info ««««««««««««««««««««««««««««««««««
Task Name:			Hyst-2
Volts:				2220.00
Field:				20.00 (kV/cm)
Hysteresis Period (ms):		1.00e+002
Preset:				Enabled
Preset Delay (ms):		1.00e+002
Profile:			Standard Bipolar

Sensor Offset:			0.00  
Sensor Scale:			-0.05 
Sensor Impedance (Ohms):	50
Sensor Label:			%

»»»»»»»»»»»»»»»»»»»»»»»»»»»»»»»»»»»»»» Data «««««««««««««««««««««««««««««««««««««««
Points:				1017

Valid Data

Point		Time (ms)	Field (kV/cm)	Measured Polarization	Sensor
   1		9.8500e-002	-0.0034		-1.6499		1.5701e-003
   2		1.9700e-001	0.0007		-1.6483		1.5888e-003
   3		2.9550e-001	0.0426		-1.6467		1.6038e-003
   4		3.9400e-001	0.0687		-1.6463		1.5888e-003
   5		4.9250e-001	0.1320		-1.6451		1.6262e-003
   6		5.9100e-001	0.1856		-1.6347		1.6299e-003
   7		6.8950e-001	0.2406		-1.6335		1.6673e-003
   8		7.8800e-001	0.3011		-1.6263		1.5926e-003
   9		8.8650e-001	0.3849		-1.6180		1.5776e-003
  10		9.8500e-001	0.4385		-1.6028		1.5888e-003
  11		1.0835e+000	0.5011		-1.5892		1.6599e-003
  12		1.1820e+000	0.5856		-1.5737		1.7085e-003
  13		1.2805e+000	0.6537		-1.5501		1.5963e-003
  14		1.3790e+000	0.7176		-1.5230		1.6113e-003
  15		1.4775e+000	0.7973		-1.4831		1.6000e-003
  16		1.5760e+000	0.8791		-1.4532		1.7010e-003
  17		1.6745e+000	0.9581		-1.4025		1.5701e-003
  18		1.7730e+000	1.0255		-1.3542		1.5477e-003
  19		1.8715e+000	1.1011		-1.2956		1.6038e-003
  20		1.9700e+000	1.1802		-1.2282		1.5178e-003
  21		2.0685e+000	1.2544		-1.1576		1.4505e-003
  22		2.1670e+000	1.3149		-1.0818		1.6075e-003
  23		2.2655e+000	1.4035		-0.9932		1.4991e-003
  24		2.3640e+000	1.4853		-0.8962		1.4991e-003
  25		2.4625e+000	1.5712		-0.7901		1.5552e-003
  26		2.5610e+000	1.6365		-0.6621		1.5141e-003
  27		2.6595e+000	1.7259		-0.5188		1.3197e-003
  28		2.7580e+000	1.7926		-0.3740		1.3234e-003
  29		2.8565e+000	1.8792		-0.2144		1.4206e-003
  30		2.9550e+000	1.9637		-0.0401		1.2972e-003
  31		3.0535e+000	2.0318		0.1382		1.4094e-003
  32		3.1520e+000	2.1149		0.3289		1.3683e-003
  33		3.2505e+000	2.2043		0.5244		1.3458e-003
  34		3.3490e+000	2.2703		0.7391		1.3608e-003
  35		3.4475e+000	2.3582		0.9437		1.4355e-003
  36		3.5460e+000	2.4304		1.1488		1.3832e-003
  37		3.6445e+000	2.5163		1.3487		1.4505e-003
  38		3.7430e+000	2.5857		1.5445		1.5664e-003
  39		3.8415e+000	2.6751		1.7388		1.5290e-003
  40		3.9400e+000	2.7473		1.9184		1.4991e-003
  41		4.0385e+000	2.8243		2.1003		1.5963e-003
  42		4.1370e+000	2.9088		2.2766		1.5851e-003
  43		4.2355e+000	2.9727		2.4554		1.6935e-003
  44		4.3340e+000	3.0634		2.6217		1.8804e-003
  45		4.4325e+000	3.1521		2.7905		1.8617e-003
  46		4.5310e+000	3.2181		2.9413		2.0187e-003
  47		4.6295e+000	3.2930		3.0861		2.2991e-003
  48		4.7280e+000	3.3776		3.2269		2.1496e-003
  49		4.8265e+000	3.4593		3.3622		2.2281e-003
  50		4.9250e+000	3.5185		3.5058		2.2729e-003
  51		5.0235e+000	3.6044		3.6474		2.3926e-003
  52		5.1220e+000	3.6855		3.7855		2.5758e-003
  53		5.2205e+000	3.7659		3.9323		2.7029e-003
  54		5.3190e+000	3.8470		4.0659		2.8113e-003
  55		5.4175e+000	3.9240		4.1932		2.8748e-003
  56		5.5160e+000	4.0113		4.3189		3.0318e-003
  57		5.6145e+000	4.0834		4.4358		3.1403e-003
  58		5.7130e+000	4.1542		4.5479		3.2001e-003
  59		5.8115e+000	4.2367		4.6580		3.4692e-003
  60		5.9100e+000	4.3185		4.7629		3.7197e-003
  61		6.0085e+000	4.3900		4.8654		3.5889e-003
  62		6.1070e+000	4.4615		4.9628		3.8992e-003
  63		6.2055e+000	4.5543		5.0597		3.9964e-003
  64		6.3040e+000	4.6333		5.1531		4.1945e-003
  65		6.4025e+000	4.7158		5.2392		4.3627e-003
  66		6.5010e+000	4.7763		5.3238		4.5160e-003
  67		6.5995e+000	4.8567		5.4124		4.6992e-003
  68		6.6980e+000	4.9378		5.4970		4.8300e-003
  69		6.7965e+000	5.0134		5.5831		5.0169e-003
  70		6.8950e+000	5.0698		5.6589		5.1702e-003
  71		6.9935e+000	5.1605		5.7407		5.1926e-003
  72		7.0920e+000	5.2526		5.8173		5.5067e-003
  73		7.1905e+000	5.3426		5.9003		5.6487e-003
  74		7.2890e+000	5.4121		5.9745		5.7497e-003
  75		7.3875e+000	5.4973		6.0463		5.8656e-003
  76		7.4860e+000	5.5784		6.1161		6.0712e-003
  77		7.5845e+000	5.6547		6.1939		6.3777e-003
  78		7.6830e+000	5.7269		6.2669		6.4338e-003
  79		7.7815e+000	5.8100		6.3312		6.6581e-003
  80		7.8800e+000	5.8939		6.3942		6.7403e-003
  81		7.9785e+000	5.9798		6.4537		6.8787e-003
  82		8.0770e+000	6.0520		6.5147		7.0544e-003
  83		8.1755e+000	6.1358		6.5773		7.2338e-003
  84		8.2740e+000	6.1956		6.6360		7.4394e-003
  85		8.3725e+000	6.2912		6.6866		7.4656e-003
  86		8.4710e+000	6.3661		6.7469		7.6787e-003
  87		8.5695e+000	6.4376		6.8067		7.8843e-003
  88		8.6680e+000	6.5166		6.8562		8.0338e-003
  89		8.7665e+000	6.6053		6.9208		8.1759e-003
  90		8.8650e+000	6.6864		6.9683		8.2955e-003
  91		8.9635e+000	6.7496		7.0186		8.3740e-003
  92		9.0620e+000	6.8156		7.0748		8.6357e-003
  93		9.1605e+000	6.9077		7.1231		8.7441e-003
  94		9.2590e+000	6.9812		7.1770		8.9310e-003
  95		9.3575e+000	7.0610		7.2276		9.0432e-003
  96		9.4560e+000	7.1483		7.2771		9.2002e-003
  97		9.5545e+000	7.2411		7.3218		9.3124e-003
  98		9.6530e+000	7.2933		7.3768		9.4507e-003
  99		9.7515e+000	7.3820		7.4243		9.5516e-003
 100		9.8500e+000	7.4521		7.4678		9.7348e-003
 101		9.9485e+000	7.5387		7.5125		9.8956e-003
 102		1.0047e+001	7.6108		7.5627		1.0075e-002
 103		1.0146e+001	7.7002		7.6082		1.0239e-002
 104		1.0244e+001	7.7675		7.6505		1.0251e-002
 105		1.0342e+001	7.8548		7.6940		1.0520e-002
 106		1.0441e+001	7.9284		7.7395		1.0666e-002
 107		1.0540e+001	8.0006		7.7818		1.0636e-002
 108		1.0638e+001	8.0982		7.8225		1.0897e-002
 109		1.0736e+001	8.1690		7.8651		1.1051e-002
 110		1.0835e+001	8.2342		7.9026		1.1170e-002
 111		1.0934e+001	8.3270		7.9397		1.1294e-002
 112		1.1032e+001	8.4054		7.9816		1.1462e-002
 113		1.1131e+001	8.4989		8.0191		1.1555e-002
 114		1.1229e+001	8.5710		8.0570		1.1742e-002
 115		1.1328e+001	8.6308		8.0953		1.1727e-002
 116		1.1426e+001	8.7071		8.1293		1.1974e-002
 117		1.1525e+001	8.7979		8.1676		1.2060e-002
 118		1.1623e+001	8.8687		8.2051		1.2202e-002
 119		1.1722e+001	8.9498		8.2338		1.2348e-002
 120		1.1820e+001	9.0281		8.2725		1.2509e-002
 121		1.1919e+001	9.1216		8.3104		1.2486e-002
 122		1.2017e+001	9.1876		8.3423		1.2748e-002
 123		1.2116e+001	9.2639		8.3774		1.2894e-002
 124		1.2214e+001	9.3464		8.4081		1.3051e-002
 125		1.2313e+001	9.4261		8.4452		1.3111e-002
 126		1.2411e+001	9.5024		8.4731		1.3223e-002
 127		1.2509e+001	9.5759		8.5067		1.3372e-002
 128		1.2608e+001	9.6646		8.5382		1.3406e-002
 129		1.2707e+001	9.7409		8.5665		1.3619e-002
 130		1.2805e+001	9.8131		8.5964		1.3772e-002
 131		1.2903e+001	9.8914		8.6323		1.3907e-002
 132		1.3002e+001	9.9773		8.6563		1.3944e-002
 133		1.3101e+001	10.0509		8.6862		1.4075e-002
 134		1.3199e+001	10.1258		8.7193		1.4232e-002
 135		1.3297e+001	10.2213		8.7484		1.4296e-002
 136		1.3396e+001	10.2866		8.7772		1.4453e-002
 137		1.3495e+001	10.3691		8.7991		1.4501e-002
 138		1.3593e+001	10.4289		8.8362		1.4726e-002
 139		1.3692e+001	10.5073		8.8629		1.4834e-002
 140		1.3790e+001	10.5918		8.8865		1.4879e-002
 141		1.3889e+001	10.6708		8.9152		1.5010e-002
 142		1.3987e+001	10.7506		8.9479		1.5114e-002
 143		1.4086e+001	10.8282		8.9686		1.5223e-002
 144		1.4184e+001	10.9045		8.9950		1.5335e-002
 145		1.4283e+001	10.9884		9.0233		1.5458e-002
 146		1.4381e+001	11.0599		9.0484		1.5555e-002
 147		1.4480e+001	11.1410		9.0700		1.5683e-002
 148		1.4578e+001	11.2118		9.0999		1.5836e-002
 149		1.4677e+001	11.2949		9.1226		1.5881e-002
 150		1.4775e+001	11.3692		9.1466		1.6008e-002
 151		1.4874e+001	11.4551		9.1709		1.6232e-002
 152		1.4972e+001	11.5252		9.1949		1.6303e-002
 153		1.5070e+001	11.6152		9.2196		1.6311e-002
 154		1.5169e+001	11.6915		9.2443		1.6453e-002
 155		1.5268e+001	11.7665		9.2695		1.6546e-002
 156		1.5366e+001	11.8434		9.2834		1.6587e-002
 157		1.5464e+001	11.9307		9.3125		1.6658e-002
 158		1.5563e+001	11.9981		9.3317		1.6860e-002
 159		1.5662e+001	12.0833		9.3592		1.6909e-002
 160		1.5760e+001	12.1569		9.3812		1.7047e-002
 161		1.5858e+001	12.2565		9.4019		1.7144e-002
 162		1.5957e+001	12.3204		9.4211		1.7294e-002
 163		1.6055e+001	12.3899		9.4442		1.7283e-002
 164		1.6154e+001	12.4785		9.4622		1.7387e-002
 165		1.6253e+001	12.5493		9.4929		1.7604e-002
 166		1.6351e+001	12.6277		9.5116		1.7638e-002
 167		1.6450e+001	12.7081		9.5332		1.7686e-002
 168		1.6548e+001	12.7871		9.5543		1.7866e-002
 169		1.6647e+001	12.8744		9.5763		1.7873e-002
 170		1.6745e+001	12.9418		9.5958		1.7974e-002
 171		1.6843e+001	13.0291		9.6142		1.8030e-002
 172		1.6942e+001	13.0951		9.6337		1.8165e-002
 173		1.7041e+001	13.1837		9.6548		1.8326e-002
 174		1.7139e+001	13.2532		9.6748		1.8337e-002
 175		1.7238e+001	13.3343		9.6955		1.8337e-002
 176		1.7336e+001	13.4243		9.7191		1.8501e-002
 177		1.7435e+001	13.5082		9.7342		1.8576e-002
 178		1.7533e+001	13.5741		9.7498		1.8733e-002
 179		1.7631e+001	13.6559		9.7769		1.8808e-002
 180		1.7730e+001	13.7412		9.7901		1.8894e-002
 181		1.7828e+001	13.8106		9.8132		1.8984e-002
 182		1.7927e+001	13.8800		9.8320		1.9144e-002
 183		1.8026e+001	13.9639		9.8459		1.9092e-002
 184		1.8124e+001	14.0505		9.8687		1.9189e-002
 185		1.8223e+001	14.1226		9.8882		1.9298e-002
 186		1.8321e+001	14.2030		9.9070		1.9320e-002
 187		1.8419e+001	14.2807		9.9154		1.9447e-002
 188		1.8518e+001	14.3591		9.9385		1.9660e-002
 189		1.8616e+001	14.4409		9.9573		1.9589e-002
 190		1.8715e+001	14.5130		9.9676		1.9806e-002
 191		1.8814e+001	14.5866		9.9960		1.9795e-002
 192		1.8912e+001	14.6691		10.0099		1.9911e-002
 193		1.9011e+001	14.7570		10.0263		1.9959e-002
 194		1.9109e+001	14.8265		10.0442		2.0060e-002
 195		1.9208e+001	14.9144		10.0634		2.0161e-002
 196		1.9306e+001	14.9729		10.0805		2.0172e-002
 197		1.9404e+001	15.0725		10.0921		2.0277e-002
 198		1.9503e+001	15.1392		10.1128		2.0442e-002
 199		1.9602e+001	15.2169		10.1276		2.0490e-002
 200		1.9700e+001	15.2987		10.1440		2.0554e-002
 201		1.9799e+001	15.3811		10.1663		2.0703e-002
 202		1.9897e+001	15.4478		10.1783		2.0726e-002
 203		1.9996e+001	15.5282		10.1934		2.0804e-002
 204		2.0094e+001	15.6169		10.2078		2.0845e-002
 205		2.0192e+001	15.6884		10.2253		2.0920e-002
 206		2.0291e+001	15.7633		10.2437		2.0987e-002
 207		2.0390e+001	15.8430		10.2577		2.1062e-002
 208		2.0488e+001	15.9214		10.2752		2.1208e-002
 209		2.0587e+001	16.0087		10.2876		2.1313e-002
 210		2.0685e+001	16.0822		10.3063		2.1298e-002
 211		2.0784e+001	16.1571		10.3163		2.1481e-002
 212		2.0882e+001	16.2389		10.3367		2.1447e-002
 213		2.0980e+001	16.3028		10.3462		2.1485e-002
 214		2.1079e+001	16.3881		10.3618		2.1642e-002
 215		2.1177e+001	16.4726		10.3793		2.1728e-002
 216		2.1276e+001	16.5517		10.3957		2.1761e-002
 217		2.1375e+001	16.6266		10.4109		2.1885e-002
 218		2.1473e+001	16.7201		10.4280		2.1900e-002
 219		2.1572e+001	16.8025		10.4408		2.1933e-002
 220		2.1670e+001	16.8768		10.4551		2.2045e-002
 221		2.1769e+001	16.9599		10.4727		2.2116e-002
 222		2.1867e+001	17.0225		10.4871		2.2206e-002
 223		2.1965e+001	17.1057		10.4946		2.2352e-002
 224		2.2064e+001	17.1764		10.5094		2.2393e-002
 225		2.2163e+001	17.2720		10.5293		2.2371e-002
 226		2.2261e+001	17.3442		10.5461		2.2449e-002
 227		2.2360e+001	17.4232		10.5553		2.2386e-002
 228		2.2458e+001	17.4926		10.5720		2.2651e-002
 229		2.2557e+001	17.5840		10.5872		2.2681e-002
 230		2.2655e+001	17.6528		10.5988		2.2801e-002
 231		2.2753e+001	17.7380		10.6099		2.2812e-002
 232		2.2852e+001	17.8212		10.6255		2.2999e-002
 233		2.2951e+001	17.8954		10.6395		2.3002e-002
 234		2.3049e+001	17.9868		10.6538		2.3010e-002
 235		2.3148e+001	18.0604		10.6662		2.3118e-002
 236		2.3246e+001	18.1401		10.6825		2.3163e-002
 237		2.3345e+001	18.2129		10.6921		2.3219e-002
 238		2.3443e+001	18.2831		10.7029		2.3350e-002
 239		2.3541e+001	18.3703		10.7280		2.3339e-002
 240		2.3640e+001	18.4466		10.7296		2.3283e-002
 241		2.3738e+001	18.5291		10.7484		2.3548e-002
 242		2.3837e+001	18.5903		10.7579		2.3567e-002
 243		2.3936e+001	18.6700		10.7727		2.3586e-002
 244		2.4034e+001	18.7580		10.7859		2.3683e-002
 245		2.4133e+001	18.8309		10.7994		2.3705e-002
 246		2.4231e+001	18.9072		10.8126		2.3728e-002
 247		2.4329e+001	18.9944		10.8238		2.3799e-002
 248		2.4428e+001	19.0707		10.8401		2.3896e-002
 249		2.4526e+001	19.1594		10.8477		2.3937e-002
 250		2.4625e+001	19.2178		10.8629		2.4064e-002
 251		2.4724e+001	19.3099		10.8744		2.4101e-002
 252		2.4822e+001	19.3793		10.8860		2.4184e-002
 253		2.4921e+001	19.4673		10.9008		2.4072e-002
 254		2.5019e+001	19.5258		10.9131		2.4318e-002
 255		2.5118e+001	19.6220		10.9183		2.4367e-002
 256		2.5216e+001	19.6453		10.9355		2.4464e-002
 257		2.5314e+001	19.6756		10.9427		2.4498e-002
 258		2.5413e+001	19.6495		10.9463		2.4535e-002
 259		2.5512e+001	19.6474		10.9574		2.4584e-002
 260		2.5610e+001	19.6124		10.9586		2.4726e-002
 261		2.5709e+001	19.5711		10.9594		2.4774e-002
 262		2.5807e+001	19.5196		10.9670		2.4730e-002
 263		2.5906e+001	19.4708		10.9638		2.4838e-002
 264		2.6004e+001	19.4268		10.9630		2.4950e-002
 265		2.6102e+001	19.3464		10.9666		2.4920e-002
 266		2.6201e+001	19.2914		10.9674		2.4973e-002
 267		2.6299e+001	19.2433		10.9610		2.4958e-002
 268		2.6398e+001	19.1560		10.9582		2.5010e-002
 269		2.6497e+001	19.0886		10.9562		2.4965e-002
 270		2.6595e+001	19.0164		10.9518		2.4946e-002
 271		2.6694e+001	18.9408		10.9479		2.4995e-002
 272		2.6792e+001	18.8714		10.9467		2.5044e-002
 273		2.6890e+001	18.8116		10.9391		2.5073e-002
 274		2.6989e+001	18.7209		10.9339		2.5137e-002
 275		2.7087e+001	18.6425		10.9251		2.5088e-002
 276		2.7186e+001	18.5600		10.9179		2.5077e-002
 277		2.7285e+001	18.4954		10.9096		2.5092e-002
 278		2.7383e+001	18.4006		10.9020		2.5145e-002
 279		2.7482e+001	18.3408		10.8964		2.5088e-002
 280		2.7580e+001	18.2549		10.8864		2.5163e-002
 281		2.7679e+001	18.1800		10.8756		2.5100e-002
 282		2.7777e+001	18.1153		10.8693		2.5122e-002
 283		2.7875e+001	18.0287		10.8605		2.5077e-002
 284		2.7974e+001	17.9435		10.8461		2.5152e-002
 285		2.8073e+001	17.8803		10.8441		2.4987e-002
 286		2.8171e+001	17.7916		10.8278		2.4969e-002
 287		2.8270e+001	17.7119		10.8206		2.4999e-002
 288		2.8368e+001	17.6418		10.8098		2.4875e-002
 289		2.8467e+001	17.5895		10.8082		2.4939e-002
 290		2.8565e+001	17.4789		10.7939		2.4853e-002
 291		2.8663e+001	17.4060		10.7875		2.4838e-002
 292		2.8762e+001	17.3304		10.7755		2.4931e-002
 293		2.8860e+001	17.2562		10.7639		2.4771e-002
 294		2.8959e+001	17.1606		10.7568		2.4797e-002
 295		2.9058e+001	17.0823		10.7476		2.4741e-002
 296		2.9156e+001	16.9847		10.7344		2.4711e-002
 297		2.9255e+001	16.9235		10.7232		2.4692e-002
 298		2.9353e+001	16.8321		10.7173		2.4606e-002
 299		2.9451e+001	16.7647		10.7017		2.4632e-002
 300		2.9550e+001	16.6884		10.6941		2.4520e-002
 301		2.9648e+001	16.6025		10.6837		2.4513e-002
 302		2.9747e+001	16.5359		10.6734		2.4359e-002
 303		2.9846e+001	16.4513		10.6654		2.4397e-002
 304		2.9944e+001	16.3750		10.6498		2.4386e-002
 305		3.0043e+001	16.3042		10.6411		2.4255e-002
 306		3.0141e+001	16.1936		10.6299		2.4288e-002
 307		3.0240e+001	16.1427		10.6195		2.4191e-002
 308		3.0338e+001	16.0554		10.6115		2.4131e-002
 309		3.0436e+001	15.9860		10.5976		2.4060e-002
 310		3.0535e+001	15.8863		10.5900		2.4012e-002
 311		3.0634e+001	15.8286		10.5804		2.4012e-002
 312		3.0732e+001	15.7482		10.5688		2.3888e-002
 313		3.0831e+001	15.6746		10.5557		2.3896e-002
 314		3.0929e+001	15.5860		10.5413		2.3855e-002
 315		3.1028e+001	15.5110		10.5321		2.3791e-002
 316		3.1126e+001	15.4292		10.5182		2.3735e-002
 317		3.1224e+001	15.3646		10.5098		2.3720e-002
 318		3.1323e+001	15.2815		10.4974		2.3593e-002
 319		3.1422e+001	15.1983		10.4819		2.3589e-002
 320		3.1520e+001	15.1261		10.4739		2.3436e-002
 321		3.1619e+001	15.0547		10.4607		2.3395e-002
 322		3.1717e+001	14.9598		10.4484		2.3425e-002
 323		3.1816e+001	14.8924		10.4388		2.3316e-002
 324		3.1914e+001	14.8024		10.4284		2.3335e-002
 325		3.2013e+001	14.7344		10.4188		2.3287e-002
 326		3.2111e+001	14.6478		10.4093		2.3219e-002
 327		3.2209e+001	14.5666		10.3913		2.3204e-002
 328		3.2308e+001	14.4931		10.3825		2.3122e-002
 329		3.2407e+001	14.4257		10.3642		2.2995e-002
 330		3.2505e+001	14.3446		10.3594		2.3073e-002
 331		3.2603e+001	14.2677		10.3387		2.2898e-002
 332		3.2702e+001	14.1811		10.3283		2.2894e-002
 333		3.2801e+001	14.1068		10.3147		2.2815e-002
 334		3.2899e+001	14.0133		10.3023		2.2763e-002
 335		3.2998e+001	13.9460		10.2968		2.2759e-002
 336		3.3096e+001	13.8573		10.2824		2.2729e-002
 337		3.3194e+001	13.7941		10.2625		2.2644e-002
 338		3.3293e+001	13.7075		10.2521		2.2584e-002
 339		3.3392e+001	13.6202		10.2381		2.2516e-002
 340		3.3490e+001	13.5363		10.2281		2.2457e-002
 341		3.3589e+001	13.4800		10.2114		2.2034e-002
 342		3.3687e+001	13.3906		10.2014		2.2326e-002
 343		3.3785e+001	13.3226		10.1882		2.2288e-002
 344		3.3884e+001	13.2202		10.1743		2.2113e-002
 345		3.3983e+001	13.1604		10.1611		2.2131e-002
 346		3.4081e+001	13.0683		10.1448		2.2143e-002
 347		3.4179e+001	13.0002		10.1348		2.2053e-002
 348		3.4278e+001	12.9246		10.1160		2.2004e-002
 349		3.4377e+001	12.8428		10.1049		2.1825e-002
 350		3.4475e+001	12.7713		10.0865		2.1806e-002
 351		3.4574e+001	12.6944		10.0678		2.1791e-002
 352		3.4672e+001	12.6132		10.0614		2.1735e-002
 353		3.4770e+001	12.5315		10.0466		2.1653e-002
 354		3.4869e+001	12.4510		10.0287		2.1728e-002
 355		3.4968e+001	12.3734		10.0159		2.1515e-002
 356		3.5066e+001	12.2957		10.0043		2.1414e-002
 357		3.5164e+001	12.2153		9.9840		2.1272e-002
 358		3.5263e+001	12.1280		9.9704		2.1316e-002
 359		3.5361e+001	12.0599		9.9537		2.1238e-002
 360		3.5460e+001	11.9781		9.9405		2.1212e-002
 361		3.5559e+001	11.9046		9.9221		2.1096e-002
 362		3.5657e+001	11.8235		9.9086		2.1058e-002
 363		3.5755e+001	11.7472		9.8942		2.0969e-002
 364		3.5854e+001	11.6675		9.8787		2.0916e-002
 365		3.5953e+001	11.5912		9.8619		2.0950e-002
 366		3.6051e+001	11.5053		9.8507		2.0793e-002
 367		3.6150e+001	11.4352		9.8344		2.0771e-002
 368		3.6248e+001	11.3444		9.8128		2.0778e-002
 369		3.6346e+001	11.2860		9.8021		2.0640e-002
 370		3.6445e+001	11.2001		9.7793		2.0505e-002
 371		3.6544e+001	11.1176		9.7654		2.0475e-002
 372		3.6642e+001	11.0351		9.7458		2.0333e-002
 373		3.6740e+001	10.9636		9.7346		2.0348e-002
 374		3.6839e+001	10.8846		9.7143		2.0266e-002
 375		3.6938e+001	10.8062		9.6967		2.0172e-002
 376		3.7036e+001	10.7306		9.6796		2.0150e-002
 377		3.7135e+001	10.6475		9.6652		2.0146e-002
 378		3.7233e+001	10.5684		9.6453		1.9974e-002
 379		3.7331e+001	10.4949		9.6325		2.0042e-002
 380		3.7430e+001	10.4213		9.6098		1.9858e-002
 381		3.7529e+001	10.3361		9.5954		1.9724e-002
 382		3.7627e+001	10.2578		9.5774		1.9787e-002
 383		3.7725e+001	10.1835		9.5575		1.9649e-002
 384		3.7824e+001	10.0976		9.5388		1.9604e-002
 385		3.7922e+001	10.0165		9.5228		1.9608e-002
 386		3.8021e+001	9.9368		9.5020		1.9406e-002
 387		3.8120e+001	9.8584		9.4909		1.9428e-002
 388		3.8218e+001	9.7876		9.4653		1.9313e-002
 389		3.8316e+001	9.7148		9.4430		1.9208e-002
 390		3.8415e+001	9.6247		9.4290		1.9092e-002
 391		3.8514e+001	9.5471		9.4083		1.9017e-002
 392		3.8612e+001	9.4721		9.3935		1.8980e-002
 393		3.8711e+001	9.3958		9.3700		1.8875e-002
 394		3.8809e+001	9.3175		9.3496		1.8860e-002
 395		3.8907e+001	9.2378		9.3325		1.8827e-002
 396		3.9006e+001	9.1615		9.3042		1.8748e-002
 397		3.9105e+001	9.0700		9.2898		1.8542e-002
 398		3.9203e+001	8.9924		9.2699		1.8524e-002
 399		3.9301e+001	8.9051		9.2487		1.8400e-002
 400		3.9400e+001	8.8343		9.2216		1.8352e-002
 401		3.9499e+001	8.7786		9.2040		1.8273e-002
 402		3.9597e+001	8.6858		9.1853		1.8307e-002
 403		3.9696e+001	8.6040		9.1597		1.8191e-002
 404		3.9794e+001	8.5325		9.1402		1.8105e-002
 405		3.9892e+001	8.4563		9.1167		1.7851e-002
 406		3.9991e+001	8.3793		9.0963		1.7836e-002
 407		4.0090e+001	8.2947		9.0768		1.7828e-002
 408		4.0188e+001	8.2013		9.0520		1.7750e-002
 409		4.0286e+001	8.1511		9.0325		1.7634e-002
 410		4.0385e+001	8.0549		9.0069		1.7503e-002
 411		4.0483e+001	7.9779		8.9814		1.7499e-002
 412		4.0582e+001	7.9030		8.9587		1.7372e-002
 413		4.0681e+001	7.8246		8.9407		1.7271e-002
 414		4.0779e+001	7.7407		8.9136		1.7219e-002
 415		4.0877e+001	7.6734		8.8893		1.7189e-002
 416		4.0976e+001	7.5875		8.8649		1.7283e-002
 417		4.1075e+001	7.5050		8.8422		1.6980e-002
 418		4.1173e+001	7.4383		8.8178		1.6823e-002
 419		4.1272e+001	7.3531		8.7927		1.6819e-002
 420		4.1370e+001	7.2630		8.7636		1.6729e-002
 421		4.1468e+001	7.1964		8.7428		1.6625e-002
 422		4.1567e+001	7.1070		8.7165		1.6606e-002
 423		4.1666e+001	7.0349		8.6886		1.6445e-002
 424		4.1764e+001	6.9524		8.6627		1.6494e-002
 425		4.1862e+001	6.8850		8.6387		1.6292e-002
 426		4.1961e+001	6.8018		8.6116		1.6038e-002
 427		4.2060e+001	6.7269		8.5861		1.6000e-002
 428		4.2158e+001	6.6300		8.5597		1.5993e-002
 429		4.2257e+001	6.5682		8.5302		1.5963e-002
 430		4.2355e+001	6.4767		8.5011		1.5840e-002
 431		4.2453e+001	6.4087		8.4739		1.5675e-002
 432		4.2552e+001	6.3200		8.4512		1.5619e-002
 433		4.2651e+001	6.2602		8.4137		1.5458e-002
 434		4.2749e+001	6.1764		8.3850		1.5357e-002
 435		4.2847e+001	6.0960		8.3594		1.5398e-002
 436		4.2946e+001	6.0121		8.3311		1.5200e-002
 437		4.3044e+001	5.9351		8.3020		1.5148e-002
 438		4.3143e+001	5.8451		8.2685		1.5006e-002
 439		4.3242e+001	5.7825		8.2390		1.4954e-002
 440		4.3340e+001	5.7028		8.2066		1.4767e-002
 441		4.3438e+001	5.6155		8.1767		1.4643e-002
 442		4.3537e+001	5.5358		8.1460		1.4673e-002
 443		4.3636e+001	5.4547		8.1073		1.4486e-002
 444		4.3734e+001	5.3729		8.0806		1.4464e-002
 445		4.3833e+001	5.2980		8.0467		1.4337e-002
 446		4.3931e+001	5.2230		8.0104		1.4165e-002
 447		4.4029e+001	5.1392		7.9800		1.4038e-002
 448		4.4128e+001	5.0739		7.9401		1.4012e-002
 449		4.4227e+001	4.9866		7.9050		1.3828e-002
 450		4.4325e+001	4.8952		7.8699		1.3791e-002
 451		4.4423e+001	4.8196		7.8336		1.3683e-002
 452		4.4522e+001	4.7419		7.8005		1.3578e-002
 453		4.4621e+001	4.6581		7.7654		1.3488e-002
 454		4.4719e+001	4.5921		7.7295		1.3481e-002
 455		4.4818e+001	4.5089		7.6900		1.3279e-002
 456		4.4916e+001	4.4216		7.6545		1.3223e-002
 457		4.5014e+001	4.3625		7.6170		1.3025e-002
 458		4.5113e+001	4.2711		7.5811		1.2939e-002
 459		4.5212e+001	4.2065		7.5356		1.2812e-002
 460		4.5310e+001	4.1144		7.5001		1.2733e-002
 461		4.5408e+001	4.0511		7.4598		1.2699e-002
 462		4.5507e+001	3.9501		7.4183		1.2468e-002
 463		4.5605e+001	3.8834		7.3780		1.2322e-002
 464		4.5704e+001	3.8064		7.3345		1.2326e-002
 465		4.5803e+001	3.7343		7.2930		1.2075e-002
 466		4.5901e+001	3.6353		7.2496		1.1985e-002
 467		4.5999e+001	3.5597		7.2029		1.1817e-002
 468		4.6098e+001	3.4882		7.1622		1.1813e-002
 469		4.6197e+001	3.4154		7.1175		1.1701e-002
 470		4.6295e+001	3.3439		7.0656		1.1529e-002
 471		4.6394e+001	3.2531		7.0226		1.1383e-002
 472		4.6492e+001	3.1720		6.9735		1.1432e-002
 473		4.6590e+001	3.0909		6.9272		1.0983e-002
 474		4.6689e+001	3.0181		6.8793		1.1036e-002
 475		4.6788e+001	2.9445		6.8287		1.0875e-002
 476		4.6886e+001	2.8648		6.7792		1.0860e-002
 477		4.6984e+001	2.7775		6.7269		1.0718e-002
 478		4.7083e+001	2.7150		6.6715		1.0583e-002
 479		4.7182e+001	2.6277		6.6192		1.0430e-002
 480		4.7280e+001	2.5225		6.5638		1.0382e-002
 481		4.7379e+001	2.4778		6.5047		1.0082e-002
 482		4.7477e+001	2.3892		6.4457		1.0154e-002
 483		4.7575e+001	2.3039		6.3918		9.9367e-003
 484		4.7674e+001	2.2249		6.3300		9.7909e-003
 485		4.7773e+001	2.1472		6.2697		9.6638e-003
 486		4.7871e+001	2.0682		6.2055		9.5142e-003
 487		4.7969e+001	2.0070		6.1365		9.3236e-003
 488		4.8068e+001	1.9115		6.0675		9.2301e-003
 489		4.8166e+001	1.8407		5.9992		9.1479e-003
 490		4.8265e+001	1.7534		5.9222		8.9610e-003
 491		4.8364e+001	1.6853		5.8552		8.7852e-003
 492		4.8462e+001	1.6015		5.7774		8.5647e-003
 493		4.8560e+001	1.5307		5.7008		8.4862e-003
 494		4.8659e+001	1.4468		5.6254		8.2507e-003
 495		4.8758e+001	1.3650		5.5460		8.1609e-003
 496		4.8856e+001	1.2826		5.4666		8.0488e-003
 497		4.8955e+001	1.2104		5.3869		7.8432e-003
 498		4.9053e+001	1.1293		5.3043		7.7235e-003
 499		4.9151e+001	1.0530		5.2285		7.5553e-003
 500		4.9250e+001	0.9788		5.1427		7.3908e-003
 501		4.9349e+001	0.8990		5.0633		7.2488e-003
 502		4.9447e+001	0.8275		4.9660		7.0955e-003
 503		4.9545e+001	0.7382		4.8742		6.9273e-003
 504		4.9644e+001	0.6592		4.7792		6.7964e-003
 505		4.9743e+001	0.5835		4.6875		6.6843e-003
 506		4.9841e+001	0.4942		4.5822		6.5833e-003
 507		4.9940e+001	0.4282		4.4888		6.2917e-003
 508		5.0038e+001	0.3450		4.3819		6.0375e-003
 509		5.0136e+001	0.2791		4.2750		5.9254e-003
 510		5.0235e+001	0.1849		4.1700		5.8543e-003
 511		5.0334e+001	0.1168		4.0619		5.6525e-003
 512		5.0432e+001	0.0275		3.9494		5.5478e-003
 513		5.0531e+001	-0.0330		3.8254		5.3609e-003
 514		5.0629e+001	-0.1175		3.7045		5.2225e-003
 515		5.0727e+001	-0.1959		3.5872		4.9982e-003
 516		5.0826e+001	-0.2797		3.4611		4.8412e-003
 517		5.0925e+001	-0.3574		3.3346		4.7478e-003
 518		5.1023e+001	-0.4454		3.1970		4.5908e-003
 519		5.1121e+001	-0.5189		3.0570		4.3665e-003
 520		5.1220e+001	-0.6035		2.9165		4.1908e-003
 521		5.1319e+001	-0.6619		2.7749		4.1646e-003
 522		5.1417e+001	-0.7568		2.6189		3.9403e-003
 523		5.1516e+001	-0.8269		2.4621		3.8692e-003
 524		5.1614e+001	-0.9045		2.3030		3.7272e-003
 525		5.1712e+001	-0.9760		2.1454		3.5029e-003
 526		5.1811e+001	-1.0640		1.9782		3.4244e-003
 527		5.1910e+001	-1.1410		1.8130		3.3085e-003
 528		5.2008e+001	-1.2118		1.6439		3.0730e-003
 529		5.2106e+001	-1.2784		1.4699		2.9720e-003
 530		5.2205e+001	-1.3637		1.2944		2.8524e-003
 531		5.2304e+001	-1.4565		1.1085		2.7627e-003
 532		5.2402e+001	-1.5300		0.9246		2.6917e-003
 533		5.2501e+001	-1.6008		0.7335		2.5645e-003
 534		5.2599e+001	-1.6902		0.5236		2.5496e-003
 535		5.2697e+001	-1.7561		0.3062		2.4374e-003
 536		5.2796e+001	-1.8427		0.0832		2.6206e-003
 537		5.2895e+001	-1.9039		-0.1670		2.1720e-003
 538		5.2993e+001	-2.0153		-0.4067		2.2094e-003
 539		5.3092e+001	-2.0943		-0.6357		2.0786e-003
 540		5.3190e+001	-2.1747		-0.8579		2.1159e-003
 541		5.3288e+001	-2.2352		-1.0682		2.1010e-003
 542		5.3387e+001	-2.3218		-1.2677		2.0561e-003
 543		5.3486e+001	-2.4036		-1.4576		2.0113e-003
 544		5.3584e+001	-2.4854		-1.6419		2.0449e-003
 545		5.3682e+001	-2.5479		-1.8150		2.1458e-003
 546		5.3781e+001	-2.6352		-1.9926		2.1122e-003
 547		5.3880e+001	-2.7095		-2.1549		2.1047e-003
 548		5.3978e+001	-2.7844		-2.3209		2.1795e-003
 549		5.4077e+001	-2.8559		-2.4741		2.2169e-003
 550		5.4175e+001	-2.9507		-2.6289		2.2430e-003
 551		5.4273e+001	-3.0229		-2.7777		2.3963e-003
 552		5.4372e+001	-3.0889		-2.9221		2.3328e-003
 553		5.4471e+001	-3.1707		-3.0630		2.4823e-003
 554		5.4569e+001	-3.2648		-3.2030		2.4487e-003
 555		5.4667e+001	-3.3507		-3.3338		2.6954e-003
 556		5.4766e+001	-3.4147		-3.4663		2.8300e-003
 557		5.4865e+001	-3.4930		-3.5956		2.8150e-003
 558		5.4963e+001	-3.5741		-3.7236		2.8935e-003
 559		5.5062e+001	-3.6360		-3.8393		3.0132e-003
 560		5.5160e+001	-3.7398		-3.9546		3.0655e-003
 561		5.5258e+001	-3.7893		-4.0727		3.2449e-003
 562		5.5357e+001	-3.8917		-4.1812		3.3421e-003
 563		5.5456e+001	-3.9611		-4.2909		3.4730e-003
 564		5.5554e+001	-4.0477		-4.4022		3.6898e-003
 565		5.5653e+001	-4.1247		-4.5056		3.7534e-003
 566		5.5751e+001	-4.1914		-4.6077		3.9253e-003
 567		5.5849e+001	-4.2615		-4.7066		4.0636e-003
 568		5.5948e+001	-4.3563		-4.8048		4.0599e-003
 569		5.6047e+001	-4.4305		-4.8997		4.2954e-003
 570		5.6145e+001	-4.5123		-4.9923		4.4898e-003
 571		5.6243e+001	-4.6024		-5.0896		4.6169e-003
 572		5.6342e+001	-4.6697		-5.1722		4.8225e-003
 573		5.6441e+001	-4.7385		-5.2644		4.8824e-003
 574		5.6539e+001	-4.8182		-5.3470		4.9534e-003
 575		5.6638e+001	-4.9034		-5.4303		5.2898e-003
 576		5.6736e+001	-4.9955		-5.5105		5.3833e-003
 577		5.6834e+001	-5.0436		-5.5923		5.4469e-003
 578		5.6933e+001	-5.1406		-5.6737		5.6674e-003
 579		5.7032e+001	-5.2306		-5.7499		5.8282e-003
 580		5.7130e+001	-5.3028		-5.8233		5.9441e-003
 581		5.7228e+001	-5.3846		-5.8983		6.1721e-003
 582		5.7327e+001	-5.4615		-5.9705		6.2730e-003
 583		5.7426e+001	-5.5255		-6.0403		6.3927e-003
 584		5.7524e+001	-5.6134		-6.1165		6.6132e-003
 585		5.7623e+001	-5.6918		-6.1804		6.7516e-003
 586		5.7721e+001	-5.7750		-6.2478		6.9609e-003
 587		5.7819e+001	-5.8588		-6.3172		7.0768e-003
 588		5.7918e+001	-5.9262		-6.3866		7.2675e-003
 589		5.8017e+001	-6.0162		-6.4545		7.3983e-003
 590		5.8115e+001	-6.0808		-6.5143		7.6824e-003
 591		5.8214e+001	-6.1564		-6.5705		7.7310e-003
 592		5.8312e+001	-6.2485		-6.6368		7.9105e-003
 593		5.8410e+001	-6.3255		-6.6922		8.0039e-003
 594		5.8509e+001	-6.4135		-6.7513		8.1535e-003
 595		5.8608e+001	-6.4974		-6.8071		8.5759e-003
 596		5.8706e+001	-6.5647		-6.8614		8.4937e-003
 597		5.8804e+001	-6.6286		-6.9184		8.5909e-003
 598		5.8903e+001	-6.7256		-6.9719		8.8974e-003
 599		5.9002e+001	-6.7908		-7.0242		8.9423e-003
 600		5.9100e+001	-6.8747		-7.0792		9.0843e-003
 601		5.9199e+001	-6.9476		-7.1279		9.3086e-003
 602		5.9297e+001	-7.0500		-7.1766		9.4133e-003
 603		5.9395e+001	-7.1132		-7.2204		9.5180e-003
 604		5.9494e+001	-7.1874		-7.2691		9.7385e-003
 605		5.9593e+001	-7.2589		-7.3246		9.9217e-003
 606		5.9691e+001	-7.3435		-7.3665		1.0060e-002
 607		5.9789e+001	-7.4253		-7.4195		1.0139e-002
 608		5.9888e+001	-7.5050		-7.4670		1.0269e-002
 609		5.9986e+001	-7.5675		-7.5081		1.0400e-002
 610		6.0085e+001	-7.6610		-7.5556		1.0606e-002
 611		6.0184e+001	-7.7421		-7.5955		1.0763e-002
 612		6.0282e+001	-7.8198		-7.6389		1.0912e-002
 613		6.0380e+001	-7.9023		-7.6804		1.0909e-002
 614		6.0479e+001	-7.9779		-7.7219		1.1111e-002
 615		6.0578e+001	-8.0425		-7.7650		1.1249e-002
 616		6.0676e+001	-8.1366		-7.8045		1.1432e-002
 617		6.0775e+001	-8.2054		-7.8420		1.1589e-002
 618		6.0873e+001	-8.2830		-7.8811		1.1694e-002
 619		6.0971e+001	-8.3710		-7.9222		1.1810e-002
 620		6.1070e+001	-8.4384		-7.9617		1.1952e-002
 621		6.1169e+001	-8.5092		-8.0024		1.2079e-002
 622		6.1267e+001	-8.6054		-8.0371		1.2195e-002
 623		6.1365e+001	-8.6838		-8.0742		1.2408e-002
 624		6.1464e+001	-8.7566		-8.1097		1.2441e-002
 625		6.1563e+001	-8.8267		-8.1460		1.2621e-002
 626		6.1661e+001	-8.9120		-8.1855		1.2628e-002
 627		6.1760e+001	-8.9938		-8.2218		1.2793e-002
 628		6.1858e+001	-9.0700		-8.2509		1.2939e-002
 629		6.1956e+001	-9.1470		-8.2868		1.3077e-002
 630		6.2055e+001	-9.2329		-8.3148		1.3301e-002
 631		6.2154e+001	-9.3147		-8.3559		1.3357e-002
 632		6.2252e+001	-9.3917		-8.3834		1.3320e-002
 633		6.2350e+001	-9.4604		-8.4165		1.3585e-002
 634		6.2449e+001	-9.5491		-8.4504		1.4793e-002
 635		6.2547e+001	-9.6144		-8.4839		1.3757e-002
 636		6.2646e+001	-9.7086		-8.5122		1.3817e-002
 637		6.2745e+001	-9.7746		-8.5442		1.4008e-002
 638		6.2843e+001	-9.8680		-8.5789		1.4195e-002
 639		6.2941e+001	-9.9457		-8.6088		1.4221e-002
 640		6.3040e+001	-10.0172		-8.6403		1.4408e-002
 641		6.3139e+001	-10.0845		-8.6666		1.4565e-002
 642		6.3237e+001	-10.1856		-8.6950		1.4651e-002
 643		6.3336e+001	-10.2557		-8.7269		1.4703e-002
 644		6.3434e+001	-10.3320		-8.7572		1.4789e-002
 645		6.3532e+001	-10.3952		-8.7803		1.4995e-002
 646		6.3631e+001	-10.4894		-8.8158		1.5129e-002
 647		6.3730e+001	-10.5677		-8.8454		1.5331e-002
 648		6.3828e+001	-10.6365		-8.8725		1.5234e-002
 649		6.3926e+001	-10.7073		-8.8932		1.5331e-002
 650		6.4025e+001	-10.8021		-8.9204		1.5570e-002
 651		6.4124e+001	-10.8715		-8.9455		1.5600e-002
 652		6.4222e+001	-10.9547		-8.9766		1.5656e-002
 653		6.4320e+001	-11.0358		-9.0026		1.5716e-002
 654		6.4419e+001	-11.1142		-9.0249		1.5847e-002
 655		6.4517e+001	-11.1898		-9.0524		1.5997e-002
 656		6.4616e+001	-11.2695		-9.0776		1.6199e-002
 657		6.4715e+001	-11.3314		-9.1059		1.6098e-002
 658		6.4813e+001	-11.4221		-9.1262		1.6292e-002
 659		6.4912e+001	-11.5039		-9.1526		1.6471e-002
 660		6.5010e+001	-11.5864		-9.1813		1.6516e-002
 661		6.5109e+001	-11.6544		-9.1988		1.6670e-002
 662		6.5207e+001	-11.7369		-9.2232		1.6744e-002
 663		6.5305e+001	-11.8159		-9.2531		1.6797e-002
 664		6.5404e+001	-11.8984		-9.2707		1.6931e-002
 665		6.5502e+001	-11.9665		-9.2946		1.6969e-002
 666		6.5601e+001	-12.0551		-9.3205		1.7088e-002
 667		6.5700e+001	-12.1280		-9.3397		1.7242e-002
 668		6.5798e+001	-12.2084		-9.3652		1.7313e-002
 669		6.5897e+001	-12.2854		-9.3864		1.7387e-002
 670		6.5995e+001	-12.3631		-9.4131		1.7406e-002
 671		6.6094e+001	-12.4558		-9.4326		1.7440e-002
 672		6.6192e+001	-12.5150		-9.4510		1.7634e-002
 673		6.6290e+001	-12.6016		-9.4837		1.7765e-002
 674		6.6389e+001	-12.6765		-9.4997		1.7843e-002
 675		6.6487e+001	-12.7624		-9.5144		1.7903e-002
 676		6.6586e+001	-12.8387		-9.5403		1.8053e-002
 677		6.6685e+001	-12.9150		-9.5575		1.8154e-002
 678		6.6783e+001	-12.9995		-9.5834		1.8232e-002
 679		6.6882e+001	-13.0786		-9.6046		1.8243e-002
 680		6.6980e+001	-13.1604		-9.6237		1.8348e-002
 681		6.7079e+001	-13.2126		-9.6425		1.8494e-002
 682		6.7177e+001	-13.3068		-9.6612		1.8636e-002
 683		6.7275e+001	-13.3886		-9.6844		1.8744e-002
 684		6.7374e+001	-13.4649		-9.7059		1.8752e-002
 685		6.7472e+001	-13.5480		-9.7219		1.8823e-002
 686		6.7571e+001	-13.6222		-9.7434		1.8935e-002
 687		6.7669e+001	-13.6786		-9.7582		1.8894e-002
 688		6.7768e+001	-13.7645		-9.7797		1.9163e-002
 689		6.7867e+001	-13.8436		-9.8021		1.9163e-002
 690		6.7965e+001	-13.9412		-9.8228		1.9245e-002
 691		6.8064e+001	-14.0113		-9.8372		1.9331e-002
 692		6.8162e+001	-14.0889		-9.8591		1.9548e-002
 693		6.8260e+001	-14.1701		-9.8822		1.9507e-002
 694		6.8359e+001	-14.2319		-9.8930		1.9619e-002
 695		6.8457e+001	-14.3281		-9.9122		1.9713e-002
 696		6.8556e+001	-14.4079		-9.9321		1.9836e-002
 697		6.8654e+001	-14.4800		-9.9465		1.9911e-002
 698		6.8753e+001	-14.5605		-9.9692		2.0277e-002
 699		6.8852e+001	-14.6340		-9.9904		2.0023e-002
 700		6.8950e+001	-14.7337		-10.0015		2.0116e-002
 701		6.9049e+001	-14.7893		-10.0211		2.0240e-002
 702		6.9147e+001	-14.8759		-10.0366		2.0266e-002
 703		6.9246e+001	-14.9625		-10.0530		2.0400e-002
 704		6.9344e+001	-15.0333		-10.0729		2.0464e-002
 705		6.9442e+001	-15.1028		-10.0857		2.0486e-002
 706		6.9541e+001	-15.1983		-10.1045		2.0591e-002
 707		6.9639e+001	-15.2698		-10.1240		2.0632e-002
 708		6.9738e+001	-15.3495		-10.1364		2.0643e-002
 709		6.9837e+001	-15.4217		-10.1575		2.0872e-002
 710		6.9935e+001	-15.5035		-10.1667		2.0946e-002
 711		7.0034e+001	-15.5750		-10.1870		2.0972e-002
 712		7.0132e+001	-15.6767		-10.2042		2.1055e-002
 713		7.0231e+001	-15.7351		-10.2190		2.1264e-002
 714		7.0329e+001	-15.8066		-10.2377		2.1178e-002
 715		7.0427e+001	-15.8801		-10.2517		2.1249e-002
 716		7.0526e+001	-15.9688		-10.2656		2.1294e-002
 717		7.0624e+001	-16.0527		-10.2876		2.1425e-002
 718		7.0723e+001	-16.1379		-10.2972		2.1522e-002
 719		7.0822e+001	-16.2190		-10.3159		2.1604e-002
 720		7.0920e+001	-16.2877		-10.3331		2.1642e-002
 721		7.1019e+001	-16.3537		-10.3458		2.1694e-002
 722		7.1117e+001	-16.4444		-10.3634		2.1750e-002
 723		7.1216e+001	-16.5297		-10.3817		2.1911e-002
 724		7.1314e+001	-16.5977		-10.3917		2.1941e-002
 725		7.1412e+001	-16.6761		-10.4049		2.2023e-002
 726		7.1511e+001	-16.7572		-10.4172		2.2146e-002
 727		7.1609e+001	-16.8465		-10.4392		2.2158e-002
 728		7.1708e+001	-16.9187		-10.4504		2.2307e-002
 729		7.1807e+001	-16.9854		-10.4639		2.2326e-002
 730		7.1905e+001	-17.0857		-10.4795		2.2486e-002
 731		7.2004e+001	-17.1524		-10.5010		2.2528e-002
 732		7.2102e+001	-17.2472		-10.5074		2.2606e-002
 733		7.2201e+001	-17.3194		-10.5290		2.2703e-002
 734		7.2299e+001	-17.3916		-10.5313		2.2670e-002
 735		7.2397e+001	-17.4734		-10.5561		2.2808e-002
 736		7.2496e+001	-17.5504		-10.5716		2.2830e-002
 737		7.2594e+001	-17.5998		-10.5880		2.2950e-002
 738		7.2693e+001	-17.7105		-10.5980		2.3029e-002
 739		7.2791e+001	-17.7731		-10.6115		2.3107e-002
 740		7.2890e+001	-17.8672		-10.6271		2.3268e-002
 741		7.2989e+001	-17.9476		-10.6343		2.3204e-002
 742		7.3087e+001	-18.0246		-10.6562		2.3335e-002
 743		7.3186e+001	-18.0961		-10.6714		2.3335e-002
 744		7.3284e+001	-18.1758		-10.6778		2.3515e-002
 745		7.3382e+001	-18.2514		-10.6925		2.3458e-002
 746		7.3481e+001	-18.3415		-10.7069		2.3578e-002
 747		7.3579e+001	-18.4081		-10.7153		2.3615e-002
 748		7.3678e+001	-18.4975		-10.7336		2.3675e-002
 749		7.3776e+001	-18.5662		-10.7492		2.3761e-002
 750		7.3875e+001	-18.6467		-10.7583		2.3873e-002
 751		7.3974e+001	-18.7319		-10.7727		2.3870e-002
 752		7.4072e+001	-18.8123		-10.7819		2.3963e-002
 753		7.4171e+001	-18.8982		-10.8002		2.4072e-002
 754		7.4269e+001	-18.9738		-10.8110		2.4098e-002
 755		7.4368e+001	-19.0391		-10.8242		2.4202e-002
 756		7.4466e+001	-19.1189		-10.8349		2.3963e-002
 757		7.4564e+001	-19.1986		-10.8505		2.4247e-002
 758		7.4663e+001	-19.2749		-10.8621		2.4337e-002
 759		7.4761e+001	-19.3457		-10.8728		2.4487e-002
 760		7.4860e+001	-19.4330		-10.8872		2.4516e-002
 761		7.4959e+001	-19.5120		-10.8944		2.4591e-002
 762		7.5057e+001	-19.5842		-10.9115		2.4715e-002
 763		7.5156e+001	-19.6577		-10.9231		2.4737e-002
 764		7.5254e+001	-19.6777		-10.9327		2.4688e-002
 765		7.5353e+001	-19.7113		-10.9447		2.4827e-002
 766		7.5451e+001	-19.7024		-10.9475		2.4875e-002
 767		7.5549e+001	-19.6832		-10.9558		2.5017e-002
 768		7.5648e+001	-19.6467		-10.9582		2.5073e-002
 769		7.5746e+001	-19.6110		-10.9666		2.5092e-002
 770		7.5845e+001	-19.5656		-10.9662		2.5171e-002
 771		7.5944e+001	-19.5223		-10.9634		2.5358e-002
 772		7.6042e+001	-19.4611		-10.9674		2.5227e-002
 773		7.6141e+001	-19.4096		-10.9614		2.5283e-002
 774		7.6239e+001	-19.3443		-10.9646		2.5309e-002
 775		7.6338e+001	-19.2714		-10.9630		2.5309e-002
 776		7.6436e+001	-19.2226		-10.9590		2.5391e-002
 777		7.6534e+001	-19.1182		-10.9578		2.5373e-002
 778		7.6633e+001	-19.0529		-10.9443		2.5365e-002
 779		7.6731e+001	-18.9951		-10.9471		2.5545e-002
 780		7.6830e+001	-18.9278		-10.9395		2.5447e-002
 781		7.6929e+001	-18.8501		-10.9347		2.5462e-002
 782		7.7027e+001	-18.7676		-10.9279		2.5522e-002
 783		7.7126e+001	-18.6961		-10.9215		2.5511e-002
 784		7.7224e+001	-18.6212		-10.9099		2.5500e-002
 785		7.7323e+001	-18.5298		-10.9060		2.5642e-002
 786		7.7421e+001	-18.4769		-10.8964		2.5500e-002
 787		7.7519e+001	-18.3800		-10.8868		2.5530e-002
 788		7.7618e+001	-18.3078		-10.8824		2.5470e-002
 789		7.7716e+001	-18.2336		-10.8720		2.5548e-002
 790		7.7815e+001	-18.1497		-10.8621		2.5496e-002
 791		7.7913e+001	-18.0727		-10.8517		2.5559e-002
 792		7.8012e+001	-17.9875		-10.8465		2.5391e-002
 793		7.8111e+001	-17.8981		-10.8357		2.5365e-002
 794		7.8209e+001	-17.8383		-10.8250		2.5459e-002
 795		7.8308e+001	-17.7545		-10.8158		2.5518e-002
 796		7.8406e+001	-17.6851		-10.8078		2.5481e-002
 797		7.8504e+001	-17.6088		-10.8038		2.5358e-002
 798		7.8603e+001	-17.5263		-10.7962		2.5320e-002
 799		7.8701e+001	-17.4486		-10.7799		2.5302e-002
 800		7.8800e+001	-17.3744		-10.7719		2.5287e-002
 801		7.8898e+001	-17.2850		-10.7639		2.5309e-002
 802		7.8997e+001	-17.2191		-10.7520		2.5208e-002
 803		7.9096e+001	-17.1428		-10.7456		2.5201e-002
 804		7.9194e+001	-17.0596		-10.7340		2.5148e-002
 805		7.9293e+001	-16.9709		-10.7232		2.5148e-002
 806		7.9391e+001	-16.9022		-10.7125		2.5055e-002
 807		7.9490e+001	-16.8087		-10.7077		2.4995e-002
 808		7.9588e+001	-16.7324		-10.6933		2.5002e-002
 809		7.9686e+001	-16.6486		-10.6857		2.4991e-002
 810		7.9785e+001	-16.5778		-10.6750		2.4980e-002
 811		7.9883e+001	-16.4864		-10.6642		2.4883e-002
 812		7.9982e+001	-16.4328		-10.6526		2.4872e-002
 813		8.0081e+001	-16.3400		-10.6399		2.4786e-002
 814		8.0179e+001	-16.2678		-10.6335		2.5092e-002
 815		8.0278e+001	-16.1819		-10.6187		2.4662e-002
 816		8.0376e+001	-16.1235		-10.6107		2.4617e-002
 817		8.0475e+001	-16.0155		-10.5988		2.4617e-002
 818		8.0573e+001	-15.9633		-10.5892		2.4573e-002
 819		8.0671e+001	-15.8719		-10.5796		2.4468e-002
 820		8.0770e+001	-15.7825		-10.5653		2.4449e-002
 821		8.0868e+001	-15.7200		-10.5517		2.4401e-002
 822		8.0967e+001	-15.6128		-10.5481		2.4303e-002
 823		8.1066e+001	-15.5640		-10.5317		2.4285e-002
 824		8.1164e+001	-15.4890		-10.5230		2.4292e-002
 825		8.1263e+001	-15.3990		-10.5110		2.4244e-002
 826		8.1361e+001	-15.3303		-10.5018		2.4180e-002
 827		8.1460e+001	-15.2389		-10.4831		2.4008e-002
 828		8.1558e+001	-15.1660		-10.4723		2.4027e-002
 829		8.1656e+001	-15.0828		-10.4643		2.3944e-002
 830		8.1755e+001	-15.0141		-10.4531		2.3907e-002
 831		8.1853e+001	-14.9302		-10.4360		2.3915e-002
 832		8.1952e+001	-14.8622		-10.4312		2.3855e-002
 833		8.2051e+001	-14.7639		-10.4105		2.3784e-002
 834		8.2149e+001	-14.6979		-10.4061		2.3743e-002
 835		8.2248e+001	-14.6141		-10.3965		2.3612e-002
 836		8.2346e+001	-14.5364		-10.3785		2.3593e-002
 837		8.2445e+001	-14.4629		-10.3618		2.3556e-002
 838		8.2543e+001	-14.3900		-10.3614		2.3526e-002
 839		8.2641e+001	-14.2972		-10.3387		2.3466e-002
 840		8.2740e+001	-14.2271		-10.3319		2.3410e-002
 841		8.2838e+001	-14.1350		-10.3191		2.3298e-002
 842		8.2937e+001	-14.0752		-10.3035		2.3171e-002
 843		8.3035e+001	-13.9762		-10.2960		2.3100e-002
 844		8.3134e+001	-13.9034		-10.2816		2.3144e-002
 845		8.3233e+001	-13.8319		-10.2708		2.3077e-002
 846		8.3331e+001	-13.7549		-10.2557		2.3085e-002
 847		8.3430e+001	-13.6690		-10.2429		2.3066e-002
 848		8.3528e+001	-13.5982		-10.2269		2.2935e-002
 849		8.3626e+001	-13.5150		-10.2126		2.2793e-002
 850		8.3725e+001	-13.4477		-10.2038		2.2778e-002
 851		8.3823e+001	-13.3549		-10.1906		2.2815e-002
 852		8.3922e+001	-13.2861		-10.1707		2.2614e-002
 853		8.4020e+001	-13.2016		-10.1567		2.2868e-002
 854		8.4119e+001	-13.1287		-10.1436		2.2531e-002
 855		8.4218e+001	-13.0490		-10.1308		2.2427e-002
 856		8.4316e+001	-12.9707		-10.1156		2.2419e-002
 857		8.4415e+001	-12.8909		-10.1017		2.2326e-002
 858		8.4513e+001	-12.8084		-10.0885		2.2217e-002
 859		8.4612e+001	-12.7260		-10.0785		2.2225e-002
 860		8.4710e+001	-12.6545		-10.0614		2.2326e-002
 861		8.4808e+001	-12.5775		-10.0534		2.1941e-002
 862		8.4907e+001	-12.4909		-10.0327		2.2042e-002
 863		8.5005e+001	-12.4132		-10.0211		2.1948e-002
 864		8.5104e+001	-12.3438		-10.0035		2.1829e-002
 865		8.5203e+001	-12.2538		-9.9888		2.1870e-002
 866		8.5301e+001	-12.1912		-9.9736		2.1746e-002
 867		8.5400e+001	-12.1170		-9.9573		2.1709e-002
 868		8.5498e+001	-12.0263		-9.9433		2.1556e-002
 869		8.5597e+001	-11.9562		-9.9289		2.1496e-002
 870		8.5695e+001	-11.8902		-9.9106		2.1473e-002
 871		8.5793e+001	-11.7933		-9.8998		2.1447e-002
 872		8.5892e+001	-11.7204		-9.8838		2.1350e-002
 873		8.5990e+001	-11.6324		-9.8639		2.1245e-002
 874		8.6089e+001	-11.5726		-9.8555		2.1219e-002
 875		8.6188e+001	-11.4757		-9.8344		2.1126e-002
 876		8.6286e+001	-11.3939		-9.8176		2.1092e-002
 877		8.6385e+001	-11.3114		-9.8037		2.0819e-002
 878		8.6483e+001	-11.2530		-9.7873		2.0928e-002
 879		8.6582e+001	-11.1513		-9.7713		2.0838e-002
 880		8.6680e+001	-11.0819		-9.7518		2.0771e-002
 881		8.6778e+001	-10.9925		-9.7390		2.0759e-002
 882		8.6877e+001	-10.9334		-9.7175		2.0602e-002
 883		8.6975e+001	-10.8557		-9.7063		2.0419e-002
 884		8.7074e+001	-10.7829		-9.6864		2.0449e-002
 885		8.7172e+001	-10.7004		-9.6744		2.0382e-002
 886		8.7271e+001	-10.6214		-9.6536		2.0288e-002
 887		8.7370e+001	-10.5451		-9.6357		2.0258e-002
 888		8.7468e+001	-10.4722		-9.6181		2.0195e-002
 889		8.7567e+001	-10.3725		-9.5974		2.0064e-002
 890		8.7665e+001	-10.3038		-9.5818		1.9978e-002
 891		8.7763e+001	-10.2206		-9.5667		2.0042e-002
 892		8.7862e+001	-10.1361		-9.5511		1.9828e-002
 893		8.7960e+001	-10.0639		-9.5304		1.9802e-002
 894		8.8059e+001	-9.9897		-9.5064		1.9746e-002
 895		8.8157e+001	-9.9079		-9.4949		1.9709e-002
 896		8.8256e+001	-9.8302		-9.4733		1.9533e-002
 897		8.8355e+001	-9.7402		-9.4546		1.9537e-002
 898		8.8453e+001	-9.6715		-9.4390		1.9414e-002
 899		8.8552e+001	-9.6130		-9.4163		1.9391e-002
 900		8.8650e+001	-9.5216		-9.3947		1.9253e-002
 901		8.8749e+001	-9.4330		-9.3768		1.9260e-002
 902		8.8847e+001	-9.3594		-9.3600		1.9242e-002
 903		8.8945e+001	-9.2845		-9.3409		1.9051e-002
 904		8.9044e+001	-9.2061		-9.3153		1.8995e-002
 905		8.9142e+001	-9.1127		-9.3014		1.8879e-002
 906		8.9241e+001	-9.0432		-9.2790		1.8640e-002
 907		8.9340e+001	-8.9663		-9.2519		1.8782e-002
 908		8.9438e+001	-8.8865		-9.2340		1.8662e-002
 909		8.9537e+001	-8.8247		-9.2096		1.8602e-002
 910		8.9635e+001	-8.7360		-9.1909		1.8584e-002
 911		8.9734e+001	-8.6570		-9.1717		1.8438e-002
 912		8.9832e+001	-8.5807		-9.1466		1.8341e-002
 913		8.9930e+001	-8.4755		-9.1326		1.8341e-002
 914		9.0029e+001	-8.4281		-9.1023		1.8217e-002
 915		9.0127e+001	-8.3408		-9.0859		1.8094e-002
 916		9.0226e+001	-8.2645		-9.0676		1.8042e-002
 917		9.0325e+001	-8.1779		-9.0425		1.7971e-002
 918		9.0423e+001	-8.1016		-9.0221		1.7817e-002
 919		9.0522e+001	-8.0150		-9.0042		1.7705e-002
 920		9.0620e+001	-7.9483		-8.9710		1.7746e-002
 921		9.0719e+001	-7.8651		-8.9499		1.7634e-002
 922		9.0817e+001	-7.7985		-8.9280		1.7529e-002
 923		9.0915e+001	-7.7119		-8.9036		1.7443e-002
 924		9.1014e+001	-7.6404		-8.8813		1.7372e-002
 925		9.1112e+001	-7.5421		-8.8518		1.7264e-002
 926		9.1211e+001	-7.4706		-8.8294		1.7111e-002
 927		9.1310e+001	-7.4039		-8.8075		1.6980e-002
 928		9.1408e+001	-7.3077		-8.7843		1.6999e-002
 929		9.1507e+001	-7.2369		-8.7548		1.6853e-002
 930		9.1605e+001	-7.1572		-8.7281		1.6864e-002
 931		9.1704e+001	-7.0761		-8.7025		1.6748e-002
 932		9.1802e+001	-6.9957		-8.6770		1.6613e-002
 933		9.1900e+001	-6.9235		-8.6531		1.6576e-002
 934		9.1999e+001	-6.8479		-8.6255		1.6498e-002
 935		9.2097e+001	-6.7702		-8.5948		1.6415e-002
 936		9.2196e+001	-6.6788		-8.5701		1.6303e-002
 937		9.2294e+001	-6.6060		-8.5486		1.6228e-002
 938		9.2393e+001	-6.5338		-8.5118		1.6131e-002
 939		9.2492e+001	-6.4616		-8.4911		1.6034e-002
 940		9.2590e+001	-6.3791		-8.4600		1.5974e-002
 941		9.2689e+001	-6.3015		-8.4269		1.5892e-002
 942		9.2787e+001	-6.2149		-8.4025		1.5825e-002
 943		9.2885e+001	-6.1365		-8.3722		1.5787e-002
 944		9.2984e+001	-6.0657		-8.3427		1.5604e-002
 945		9.3082e+001	-5.9715		-8.3144		1.5481e-002
 946		9.3181e+001	-5.9069		-8.2817		1.5425e-002
 947		9.3279e+001	-5.8190		-8.2533		1.5327e-002
 948		9.3378e+001	-5.7537		-8.2178		1.5197e-002
 949		9.3477e+001	-5.6705		-8.1887		1.5129e-002
 950		9.3575e+001	-5.5784		-8.1604		1.5092e-002
 951		9.3674e+001	-5.5007		-8.1189		1.5002e-002
 952		9.3772e+001	-5.4210		-8.0858		1.4942e-002
 953		9.3871e+001	-5.3310		-8.0602		1.4763e-002
 954		9.3969e+001	-5.2835		-8.0239		1.4632e-002
 955		9.4067e+001	-5.1797		-7.9896		1.4494e-002
 956		9.4166e+001	-5.1144		-7.9577		1.4542e-002
 957		9.4264e+001	-5.0237		-7.9266		1.4337e-002
 958		9.4363e+001	-4.9570		-7.8867		1.4329e-002
 959		9.4462e+001	-4.8808		-7.8460		1.4210e-002
 960		9.4560e+001	-4.7845		-7.8197		1.4086e-002
 961		9.4659e+001	-4.7007		-7.7782		1.3937e-002
 962		9.4757e+001	-4.6367		-7.7463		1.3911e-002
 963		9.4856e+001	-4.5550		-7.7012		1.3746e-002
 964		9.4954e+001	-4.4780		-7.6669		1.3649e-002
 965		9.5052e+001	-4.3934		-7.6377		1.3514e-002
 966		9.5151e+001	-4.3219		-7.5907		1.3492e-002
 967		9.5249e+001	-4.2374		-7.5512		1.3316e-002
 968		9.5348e+001	-4.1762		-7.5117		1.3286e-002
 969		9.5447e+001	-4.0855		-7.4670		1.3185e-002
 970		9.5545e+001	-3.9982		-7.4295		1.3081e-002
 971		9.5644e+001	-3.9185		-7.3924		1.2909e-002
 972		9.5742e+001	-3.8449		-7.3449		1.2834e-002
 973		9.5841e+001	-3.7604		-7.3086		1.2740e-002
 974		9.5939e+001	-3.6944		-7.2671		1.2479e-002
 975		9.6037e+001	-3.6119		-7.2216		1.2468e-002
 976		9.6136e+001	-3.5391		-7.1789		1.2311e-002
 977		9.6234e+001	-3.4497		-7.1327		1.2217e-002
 978		9.6333e+001	-3.3899		-7.0868		1.2142e-002
 979		9.6432e+001	-3.3013		-7.0425		1.1978e-002
 980		9.6530e+001	-3.2408		-6.9950		1.1828e-002
 981		9.6629e+001	-3.1315		-6.9492		1.1727e-002
 982		9.6727e+001	-3.0772		-6.8993		1.1582e-002
 983		9.6826e+001	-2.9830		-6.8530		1.1462e-002
 984		9.6924e+001	-2.9102		-6.8023		1.1391e-002
 985		9.7022e+001	-2.8215		-6.7477		1.1193e-002
 986		9.7121e+001	-2.7514		-6.7002		1.1189e-002
 987		9.7219e+001	-2.6593		-6.6448		1.1081e-002
 988		9.7318e+001	-2.5603		-6.5941		1.0935e-002
 989		9.7416e+001	-2.5198		-6.5374		1.0800e-002
 990		9.7515e+001	-2.4510		-6.4860		1.0729e-002
 991		9.7614e+001	-2.3610		-6.4301		1.0587e-002
 992		9.7712e+001	-2.2778		-6.3703		1.0426e-002
 993		9.7811e+001	-2.1933		-6.3112		1.0333e-002
 994		9.7909e+001	-2.1135		-6.2526		1.0127e-002
 995		9.8007e+001	-2.0462		-6.1931		1.0109e-002
 996		9.8106e+001	-1.9582		-6.1329		9.9703e-003
 997		9.8204e+001	-1.8812		-6.0651		9.8432e-003
 998		9.8303e+001	-1.8104		-6.0048		9.5927e-003
 999		9.8401e+001	-1.7417		-5.9322		9.4619e-003
1000		9.8500e+001	-1.6393		-5.8700		9.4170e-003
1001		9.8599e+001	-1.5616		-5.8062		9.2750e-003
1002		9.8697e+001	-1.5032		-5.7256		9.0096e-003
1003		9.8796e+001	-1.4104		-5.6561		8.9124e-003
1004		9.8894e+001	-1.3321		-5.5831		8.8638e-003
1005		9.8993e+001	-1.2496		-5.5026		8.7030e-003
1006		9.9091e+001	-1.1884		-5.4236		8.5759e-003
1007		9.9189e+001	-1.0997		-5.3434		8.0376e-003
1008		9.9288e+001	-1.0173		-5.2580		8.1834e-003
1009		9.9386e+001	-0.9272		-5.1754		8.1011e-003
1010		9.9485e+001	-0.8667		-5.0900		7.9665e-003
1011		9.9584e+001	-0.7863		-5.0027		7.8170e-003
1012		9.9682e+001	-0.7190		-4.9045		7.7422e-003
1013		9.9781e+001	-0.6310		-4.8183		7.5105e-003
1014		9.9879e+001	-0.5512		-4.7230		7.2263e-003
1015		9.9978e+001	-0.4639		-4.6257		7.2488e-003
1016		1.0008e+002	-0.3856		-4.5183		7.0245e-003
1017		1.0017e+002	-0.2983		-4.4238		6.9273e-003

PMax (µC/cm2):		1.09e+001
Pr (µC/cm2):		3.89e+000
-Pr (µC/cm2):		-4.42e+000
Vc:			2.20e+002
-Vc:			-2.07e+002
C (Max-Eff) (nF):	4.96e+000
Vert. Eccentricity (µC/cm2):	-2.65e-001

Horiz. Eccentricity (Volts):	6.43e+000

Offset (µC/cm2):	1.65e+000



Hysteresis Version: 4.6.11 - Radiant Technologies, Inc., 1999 - 12/12/11

