»»»»»»»»»»»»»»»»»»»»»»»»»»»»»»»»»»»» Hysteresis ««««««««««««««««««««««««««««««««««««
»»»  Version:			4.6.11
»»»  Vision Version:		4.6.5 (R)
»»»  Vision Compiled:		7 December 2011
»»»  Driver Version:		4.6.17
»»»  Tester Name:		PPM21211-813
»»»  Tester S/N:		PPM21211-813                    
»»»  Internal Amp Type:		No Internal Amp
»»»  Internal Amp S/N:		100000
»»»  Execution Count:		0
»»»»»»»»»»»»»»»»»»»»»»»»»»»»»»»»»»»»»»»»»»««««««««««««««««««««««««««««««««««««««««««

Stored:				1/16/2024 - 11:22:53
Configured:			01/16/24 11:09:13 AM
Executed:			01/16/24 11:22:25 AM

»»»»»»»»»»»»»»»»»»»»»»»»»»»»»»»»»»» Sample Info ««««««««««««««««««««««««««««««««««««
Sample Name:			
Lot Name:			
Wafer Name:			
Die Row/Column:			0/0
Capacitor Number:		0
Sample Area (cm2):		1.03e+000
Sample Thickness (µm):		1.15e+003

Mux Loop Adjustment:		Disabled

Amplifier:			High Voltage (HVA)
HVI Channel/Port:		1/1
Drive Gain Factor:			1000.00r
Drive Voltage Limit:			4000.00r

»»»»»»»»»»»»»»»»»»»»»»»»»»»»»»»»»»» Tester Info «««««««««««««««««««««««««««««««««««
Tester Name:			PPM21211-813
Tester Serial Number:		PPM21211-813                    
Return Signal Amp. Level:	0.00019

»»»»»»»»»»»»»»»»»»»»»»»»»»»»»»»» Hysteresis Info ««««««««««««««««««««««««««««««««««
Task Name:			Hyst-2
Volts:				2300.00
Field:				20.00 (kV/cm)
Hysteresis Period (ms):		1.00e+002
Preset:				Enabled
Preset Delay (ms):		1.00e+002
Profile:			Standard Bipolar

»»»»»»»»»»»»»»»»»»»»»»»»»»»»»»»»»»»»»» Data «««««««««««««««««««««««««««««««««««««««
Points:				1017

Valid Data

Point		Time (ms)	Field (kV/cm)	Measured Polarization
   1		9.8500e-002	-0.0119		-3.3137
   2		1.9700e-001	-0.0013		-3.3055
   3		2.9550e-001	0.0352		-3.2895
   4		3.9400e-001	0.0770		-3.2703
   5		4.9250e-001	0.1353		-3.2453
   6		5.9100e-001	0.1924		-3.1987
   7		6.8950e-001	0.2355		-3.1400
   8		7.8800e-001	0.3025		-3.0599
   9		8.8650e-001	0.3755		-2.9578
  10		9.8500e-001	0.4266		-2.8447
  11		1.0835e+000	0.5095		-2.6969
  12		1.1820e+000	0.5752		-2.5201
  13		1.2805e+000	0.6654		-2.3230
  14		1.3790e+000	0.7357		-2.1016
  15		1.4775e+000	0.7974		-1.8458
  16		1.5760e+000	0.8651		-1.5747
  17		1.6745e+000	0.9467		-1.2892
  18		1.7730e+000	1.0243		-0.9653
  19		1.8715e+000	1.1092		-0.6383
  20		1.9700e+000	1.1908		-0.2934
  21		2.0685e+000	1.2738		0.0422
  22		2.1670e+000	1.3368		0.3798
  23		2.2655e+000	1.4350		0.7040
  24		2.3640e+000	1.5046		1.0158
  25		2.4625e+000	1.5750		1.3115
  26		2.5610e+000	1.6493		1.5915
  27		2.6595e+000	1.7296		1.8552
  28		2.7580e+000	1.8151		2.1168
  29		2.8565e+000	1.9060		2.3554
  30		2.9550e+000	1.9803		2.5870
  31		3.0535e+000	2.0626		2.8021
  32		3.1520e+000	2.1230		3.0145
  33		3.2505e+000	2.2085		3.2148
  34		3.3490e+000	2.2842		3.4107
  35		3.4475e+000	2.3518		3.5934
  36		3.5460e+000	2.4381		3.7760
  37		3.6445e+000	2.5277		3.9395
  38		3.7430e+000	2.5986		4.1124
  39		3.8415e+000	2.6769		4.2681
  40		3.9400e+000	2.7539		4.4159
  41		4.0385e+000	2.8295		4.5665
  42		4.1370e+000	2.9058		4.7046
  43		4.2355e+000	2.9867		4.8454
  44		4.3340e+000	3.0597		4.9772
  45		4.4325e+000	3.1493		5.1028
  46		4.5310e+000	3.2315		5.2307
  47		4.6295e+000	3.3065		5.3492
  48		4.7280e+000	3.3629		5.4716
  49		4.8265e+000	3.4724		5.5835
  50		4.9250e+000	3.5380		5.6867
  51		5.0235e+000	3.6130		5.7927
  52		5.1220e+000	3.6979		5.8964
  53		5.2205e+000	3.7683		6.0012
  54		5.3190e+000	3.8578		6.0994
  55		5.4175e+000	3.9421		6.1917
  56		5.5160e+000	4.0131		6.2856
  57		5.6145e+000	4.1006		6.3810
  58		5.7130e+000	4.1676		6.4698
  59		5.8115e+000	4.2426		6.5535
  60		5.9100e+000	4.3123		6.6290
  61		6.0085e+000	4.3978		6.7162
  62		6.1070e+000	4.4728		6.7937
  63		6.2055e+000	4.5697		6.8770
  64		6.3040e+000	4.6453		6.9493
  65		6.4025e+000	4.7262		7.0232
  66		6.5010e+000	4.7913		7.0944
  67		6.5995e+000	4.8596		7.1676
  68		6.6980e+000	4.9458		7.2384
  69		6.7965e+000	5.0301		7.3029
  70		6.8950e+000	5.1104		7.3741
  71		6.9935e+000	5.1913		7.4398
  72		7.0920e+000	5.2782		7.5055
  73		7.1905e+000	5.3585		7.5712
  74		7.2890e+000	5.4321		7.6330
  75		7.3875e+000	5.4965		7.6897
  76		7.4860e+000	5.5854		7.7543
  77		7.5845e+000	5.6610		7.8137
  78		7.6830e+000	5.7453		7.8736
  79		7.7815e+000	5.8355		7.9248
  80		7.8800e+000	5.9032		7.9772
  81		7.9785e+000	5.9814		8.0410
  82		8.0770e+000	6.0511		8.0860
  83		8.1755e+000	6.1261		8.1403
  84		8.2740e+000	6.2050		8.1998
  85		8.3725e+000	6.3065		8.2412
  86		8.4710e+000	6.3735		8.2901
  87		8.5695e+000	6.4512		8.3433
  88		8.6680e+000	6.5367		8.3914
  89		8.7665e+000	6.6163		8.4427
  90		8.8650e+000	6.6847		8.4869
  91		8.9635e+000	6.7709		8.5346
  92		9.0620e+000	6.8386		8.5792
  93		9.1605e+000	6.9308		8.6195
  94		9.2590e+000	6.9925		8.6688
  95		9.3575e+000	7.0927		8.7149
  96		9.4560e+000	7.1517		8.7572
  97		9.5545e+000	7.2353		8.7978
  98		9.6530e+000	7.3043		8.8401
  99		9.7515e+000	7.3733		8.8831
 100		9.8500e+000	7.4688		8.9214
 101		9.9485e+000	7.5498		8.9613
 102		1.0047e+001	7.6334		8.9997
 103		1.0146e+001	7.6898		9.0443
 104		1.0244e+001	7.7833		9.0818
 105		1.0342e+001	7.8609		9.1162
 106		1.0441e+001	7.9306		9.1585
 107		1.0540e+001	8.0168		9.1944
 108		1.0638e+001	8.0878		9.2293
 109		1.0736e+001	8.1800		9.2621
 110		1.0835e+001	8.2530		9.3020
 111		1.0934e+001	8.3399		9.3364
 112		1.1032e+001	8.4162		9.3716
 113		1.1131e+001	8.4965		9.4061
 114		1.1229e+001	8.5549		9.4393
 115		1.1328e+001	8.6292		9.4757
 116		1.1426e+001	8.7167		9.5089
 117		1.1525e+001	8.8083		9.5465
 118		1.1623e+001	8.8846		9.5715
 119		1.1722e+001	8.9569		9.6091
 120		1.1820e+001	9.0564		9.6396
 121		1.1919e+001	9.1248		9.6709
 122		1.2017e+001	9.1798		9.7041
 123		1.2116e+001	9.2687		9.7346
 124		1.2214e+001	9.3410		9.7624
 125		1.2313e+001	9.4279		9.7952
 126		1.2411e+001	9.5036		9.8250
 127		1.2509e+001	9.5984		9.8527
 128		1.2608e+001	9.6734		9.8840
 129		1.2707e+001	9.7490		9.9157
 130		1.2805e+001	9.8114		9.9454
 131		1.2903e+001	9.9030		9.9720
 132		1.3002e+001	9.9720		10.0021
 133		1.3101e+001	10.0595		10.0315
 134		1.3199e+001	10.1285		10.0557
 135		1.3297e+001	10.2108		10.0843
 136		1.3396e+001	10.2891		10.1105
 137		1.3495e+001	10.3707		10.1422
 138		1.3593e+001	10.4509		10.1613
 139		1.3692e+001	10.5272		10.1911
 140		1.3790e+001	10.5996		10.2149
 141		1.3889e+001	10.6792		10.2486
 142		1.3987e+001	10.7468		10.2673
 143		1.4086e+001	10.8410		10.2986
 144		1.4184e+001	10.9193		10.3178
 145		1.4283e+001	10.9910		10.3444
 146		1.4381e+001	11.0606		10.3741
 147		1.4480e+001	11.1502		10.3909
 148		1.4578e+001	11.2272		10.4187
 149		1.4677e+001	11.2981		10.4426
 150		1.4775e+001	11.3817		10.4680
 151		1.4874e+001	11.4653		10.4915
 152		1.4972e+001	11.5436		10.5134
 153		1.5070e+001	11.6126		10.5411
 154		1.5169e+001	11.6849		10.5646
 155		1.5268e+001	11.7844		10.5826
 156		1.5366e+001	11.8494		10.6076
 157		1.5464e+001	11.9344		10.6319
 158		1.5563e+001	12.0007		10.6522
 159		1.5662e+001	12.0942		10.6784
 160		1.5760e+001	12.1652		10.6941
 161		1.5858e+001	12.2535		10.7160
 162		1.5957e+001	12.3258		10.7410
 163		1.6055e+001	12.3988		10.7590
 164		1.6154e+001	12.4731		10.7872
 165		1.6253e+001	12.5567		10.8091
 166		1.6351e+001	12.6389		10.8243
 167		1.6450e+001	12.7258		10.8470
 168		1.6548e+001	12.8127		10.8662
 169		1.6647e+001	12.8764		10.8873
 170		1.6745e+001	12.9421		10.9072
 171		1.6843e+001	13.0184		10.9327
 172		1.6942e+001	13.0980		10.9460
 173		1.7041e+001	13.1763		10.9643
 174		1.7139e+001	13.2625		10.9952
 175		1.7238e+001	13.3408		11.0093
 176		1.7336e+001	13.4058		11.0269
 177		1.7435e+001	13.5067		11.0512
 178		1.7533e+001	13.5671		11.0707
 179		1.7631e+001	13.6473		11.0919
 180		1.7730e+001	13.7376		11.1040
 181		1.7828e+001	13.8125		11.1239
 182		1.7927e+001	13.8888		11.1423
 183		1.8026e+001	13.9790		11.1646
 184		1.8124e+001	14.0600		11.1818
 185		1.8223e+001	14.1303		11.2010
 186		1.8321e+001	14.1986		11.2205
 187		1.8419e+001	14.2829		11.2401
 188		1.8518e+001	14.3598		11.2538
 189		1.8616e+001	14.4461		11.2749
 190		1.8715e+001	14.5058		11.2894
 191		1.8814e+001	14.6106		11.3089
 192		1.8912e+001	14.6697		11.3238
 193		1.9011e+001	14.7526		11.3445
 194		1.9109e+001	14.8276		11.3637
 195		1.9208e+001	14.9092		11.3762
 196		1.9306e+001	14.9914		11.3965
 197		1.9404e+001	15.0737		11.4185
 198		1.9503e+001	15.1400		11.4259
 199		1.9602e+001	15.2263		11.4470
 200		1.9700e+001	15.2979		11.4662
 201		1.9799e+001	15.3736		11.4787
 202		1.9897e+001	15.4538		11.4971
 203		1.9996e+001	15.5315		11.5151
 204		2.0094e+001	15.6144		11.5241
 205		2.0192e+001	15.7020		11.5514
 206		2.0291e+001	15.7995		11.5620
 207		2.0390e+001	15.8492		11.5792
 208		2.0488e+001	15.9308		11.5925
 209		2.0587e+001	16.0184		11.6125
 210		2.0685e+001	16.0828		11.6285
 211		2.0784e+001	16.1617		11.6449
 212		2.0882e+001	16.2473		11.6610
 213		2.0980e+001	16.3349		11.6707
 214		2.1079e+001	16.3959		11.6919
 215		2.1177e+001	16.4941		11.7036
 216		2.1276e+001	16.5598		11.7208
 217		2.1375e+001	16.6487		11.7384
 218		2.1473e+001	16.7236		11.7517
 219		2.1572e+001	16.8026		11.7634
 220		2.1670e+001	16.8829		11.7810
 221		2.1769e+001	16.9691		11.7939
 222		2.1867e+001	17.0454		11.8119
 223		2.1965e+001	17.1197		11.8264
 224		2.2064e+001	17.1960		11.8409
 225		2.2163e+001	17.2743		11.8530
 226		2.2261e+001	17.3360		11.8679
 227		2.2360e+001	17.4302		11.8823
 228		2.2458e+001	17.5078		11.9003
 229		2.2557e+001	17.5894		11.9101
 230		2.2655e+001	17.6829		11.9265
 231		2.2753e+001	17.7473		11.9445
 232		2.2852e+001	17.8223		11.9504
 233		2.2951e+001	17.9191		11.9692
 234		2.3049e+001	17.9689		11.9833
 235		2.3148e+001	18.0498		11.9962
 236		2.3246e+001	18.1361		12.0075
 237		2.3345e+001	18.2250		12.0173
 238		2.3443e+001	18.2960		12.0376
 239		2.3541e+001	18.3630		12.0576
 240		2.3640e+001	18.4406		12.0646
 241		2.3738e+001	18.5255		12.0771
 242		2.3837e+001	18.6011		12.0916
 243		2.3936e+001	18.6801		12.1076
 244		2.4034e+001	18.7657		12.1229
 245		2.4133e+001	18.8433		12.1323
 246		2.4231e+001	18.9116		12.1440
 247		2.4329e+001	19.0018		12.1581
 248		2.4428e+001	19.0741		12.1706
 249		2.4526e+001	19.1637		12.1831
 250		2.4625e+001	19.2374		12.1980
 251		2.4724e+001	19.3143		12.2109
 252		2.4822e+001	19.3866		12.2222
 253		2.4921e+001	19.4828		12.2367
 254		2.5019e+001	19.5531		12.2461
 255		2.5118e+001	19.6274		12.2578
 256		2.5216e+001	19.6420		12.2664
 257		2.5314e+001	19.6812		12.2774
 258		2.5413e+001	19.6659		12.2797
 259		2.5512e+001	19.6414		12.2833
 260		2.5610e+001	19.6155		12.2821
 261		2.5709e+001	19.5989		12.2778
 262		2.5807e+001	19.5173		12.2786
 263		2.5906e+001	19.4742		12.2774
 264		2.6004e+001	19.4211		12.2750
 265		2.6102e+001	19.3621		12.2707
 266		2.6201e+001	19.2997		12.2727
 267		2.6299e+001	19.2281		12.2711
 268		2.6398e+001	19.1657		12.2590
 269		2.6497e+001	19.0914		12.2531
 270		2.6595e+001	19.0131		12.2520
 271		2.6694e+001	18.9435		12.2488
 272		2.6792e+001	18.8625		12.2406
 273		2.6890e+001	18.8048		12.2348
 274		2.6989e+001	18.7219		12.2348
 275		2.7087e+001	18.6343		12.2207
 276		2.7186e+001	18.5686		12.2203
 277		2.7285e+001	18.4903		12.2140
 278		2.7383e+001	18.4014		12.2082
 279		2.7482e+001	18.3371		12.1972
 280		2.7580e+001	18.2515		12.1913
 281		2.7679e+001	18.1885		12.1874
 282		2.7777e+001	18.1042		12.1784
 283		2.7875e+001	18.0127		12.1757
 284		2.7974e+001	17.9543		12.1690
 285		2.8073e+001	17.8727		12.1593
 286		2.8171e+001	17.7858		12.1530
 287		2.8270e+001	17.7115		12.1440
 288		2.8368e+001	17.6365		12.1378
 289		2.8467e+001	17.5668		12.1342
 290		2.8565e+001	17.4819		12.1174
 291		2.8663e+001	17.4090		12.1162
 292		2.8762e+001	17.3167		12.1069
 293		2.8860e+001	17.2464		12.0990
 294		2.8959e+001	17.1615		12.0885
 295		2.9058e+001	17.0998		12.0857
 296		2.9156e+001	17.0076		12.0760
 297		2.9255e+001	16.9260		12.0697
 298		2.9353e+001	16.8450		12.0607
 299		2.9451e+001	16.7628		12.0552
 300		2.9550e+001	16.6918		12.0415
 301		2.9648e+001	16.6142		12.0368
 302		2.9747e+001	16.5445		12.0196
 303		2.9846e+001	16.4636		12.0216
 304		2.9944e+001	16.3780		12.0083
 305		3.0043e+001	16.3037		12.0009
 306		3.0141e+001	16.2194		11.9903
 307		3.0240e+001	16.1365		11.9825
 308		3.0338e+001	16.0529		11.9750
 309		3.0436e+001	15.9819		11.9610
 310		3.0535e+001	15.8957		11.9539
 311		3.0634e+001	15.8327		11.9484
 312		3.0732e+001	15.7464		11.9375
 313		3.0831e+001	15.6754		11.9261
 314		3.0929e+001	15.5786		11.9179
 315		3.1028e+001	15.5029		11.9066
 316		3.1126e+001	15.4187		11.8960
 317		3.1224e+001	15.3543		11.8917
 318		3.1323e+001	15.2774		11.8819
 319		3.1422e+001	15.2031		11.8667
 320		3.1520e+001	15.1055		11.8597
 321		3.1619e+001	15.0478		11.8546
 322		3.1717e+001	14.9602		11.8409
 323		3.1816e+001	14.8767		11.8288
 324		3.1914e+001	14.8010		11.8182
 325		3.2013e+001	14.7227		11.8115
 326		3.2111e+001	14.6451		11.8022
 327		3.2209e+001	14.5682		11.7885
 328		3.2308e+001	14.4819		11.7814
 329		3.2407e+001	14.4169		11.7713
 330		3.2505e+001	14.3326		11.7591
 331		3.2603e+001	14.2497		11.7517
 332		3.2702e+001	14.1787		11.7364
 333		3.2801e+001	14.0932		11.7298
 334		3.2899e+001	14.0215		11.7138
 335		3.2998e+001	13.9213		11.7055
 336		3.3096e+001	13.8676		11.7044
 337		3.3194e+001	13.7847		11.6813
 338		3.3293e+001	13.6951		11.6743
 339		3.3392e+001	13.6274		11.6598
 340		3.3490e+001	13.5438		11.6496
 341		3.3589e+001	13.4795		11.6418
 342		3.3687e+001	13.3992		11.6281
 343		3.3785e+001	13.3289		11.6168
 344		3.3884e+001	13.2367		11.6031
 345		3.3983e+001	13.1531		11.5933
 346		3.4081e+001	13.0715		11.5827
 347		3.4179e+001	12.9806		11.5686
 348		3.4278e+001	12.9189		11.5565
 349		3.4377e+001	12.8406		11.5487
 350		3.4475e+001	12.7676		11.5350
 351		3.4574e+001	12.6860		11.5248
 352		3.4672e+001	12.5998		11.5115
 353		3.4770e+001	12.5301		11.5029
 354		3.4869e+001	12.4452		11.4849
 355		3.4968e+001	12.3709		11.4701
 356		3.5066e+001	12.2953		11.4642
 357		3.5164e+001	12.2210		11.4466
 358		3.5263e+001	12.1321		11.4376
 359		3.5361e+001	12.0551		11.4204
 360		3.5460e+001	11.9735		11.4083
 361		3.5559e+001	11.9032		11.3973
 362		3.5657e+001	11.8236		11.3832
 363		3.5755e+001	11.7493		11.3680
 364		3.5854e+001	11.6650		11.3574
 365		3.5953e+001	11.5801		11.3430
 366		3.6051e+001	11.4919		11.3308
 367		3.6150e+001	11.4255		11.3156
 368		3.6248e+001	11.3433		11.2995
 369		3.6346e+001	11.2776		11.2890
 370		3.6445e+001	11.1860		11.2765
 371		3.6544e+001	11.1117		11.2589
 372		3.6642e+001	11.0334		11.2503
 373		3.6740e+001	10.9598		11.2338
 374		3.6839e+001	10.8769		11.2205
 375		3.6938e+001	10.7900		11.2041
 376		3.7036e+001	10.7210		11.1857
 377		3.7135e+001	10.6447		11.1740
 378		3.7233e+001	10.5664		11.1623
 379		3.7331e+001	10.4868		11.1482
 380		3.7430e+001	10.4105		11.1267
 381		3.7529e+001	10.3242		11.1149
 382		3.7627e+001	10.2433		11.0969
 383		3.7725e+001	10.1723		11.0836
 384		3.7824e+001	10.0927		11.0680
 385		3.7922e+001	10.0283		11.0496
 386		3.8021e+001	9.9408		11.0379
 387		3.8120e+001	9.8605		11.0191
 388		3.8218e+001	9.7855		10.9980
 389		3.8316e+001	9.7006		10.9819
 390		3.8415e+001	9.6124		10.9694
 391		3.8514e+001	9.5493		10.9526
 392		3.8612e+001	9.4737		10.9381
 393		3.8711e+001	9.4001		10.9178
 394		3.8809e+001	9.3032		10.8990
 395		3.8907e+001	9.2183		10.8842
 396		3.9006e+001	9.1493		10.8662
 397		3.9105e+001	9.0670		10.8462
 398		3.9203e+001	8.9941		10.8294
 399		3.9301e+001	8.9105		10.8110
 400		3.9400e+001	8.8289		10.7918
 401		3.9499e+001	8.7599		10.7707
 402		3.9597e+001	8.6862		10.7555
 403		3.9696e+001	8.6000		10.7379
 404		3.9794e+001	8.5297		10.7140
 405		3.9892e+001	8.4487		10.7007
 406		3.9991e+001	8.3718		10.6792
 407		4.0090e+001	8.2961		10.6593
 408		4.0188e+001	8.2052		10.6428
 409		4.0286e+001	8.1230		10.6147
 410		4.0385e+001	8.0447		10.5971
 411		4.0483e+001	7.9638		10.5779
 412		4.0582e+001	7.8848		10.5556
 413		4.0681e+001	7.8218		10.5368
 414		4.0779e+001	7.7296		10.5130
 415		4.0877e+001	7.6646		10.4973
 416		4.0976e+001	7.5783		10.4711
 417		4.1075e+001	7.5007		10.4445
 418		4.1173e+001	7.4224		10.4246
 419		4.1272e+001	7.3474		10.4046
 420		4.1370e+001	7.2685		10.3815
 421		4.1468e+001	7.2075		10.3620
 422		4.1567e+001	7.1265		10.3323
 423		4.1666e+001	7.0383		10.3123
 424		4.1764e+001	6.9441		10.2896
 425		4.1862e+001	6.8731		10.2599
 426		4.1961e+001	6.7849		10.2376
 427		4.2060e+001	6.7099		10.2126
 428		4.2158e+001	6.6323		10.1840
 429		4.2257e+001	6.5613		10.1602
 430		4.2355e+001	6.4837		10.1324
 431		4.2453e+001	6.3987		10.1105
 432		4.2552e+001	6.3138		10.0780
 433		4.2651e+001	6.2455		10.0518
 434		4.2749e+001	6.1506		10.0197
 435		4.2847e+001	6.0902		9.9967
 436		4.2946e+001	6.0073		9.9658
 437		4.3044e+001	5.9337		9.9388
 438		4.3143e+001	5.8508		9.9083
 439		4.3242e+001	5.7758		9.8785
 440		4.3340e+001	5.6948		9.8516
 441		4.3438e+001	5.6152		9.8187
 442		4.3537e+001	5.5283		9.7815
 443		4.3636e+001	5.4587		9.7522
 444		4.3734e+001	5.3777		9.7194
 445		4.3833e+001	5.3048		9.6842
 446		4.3931e+001	5.2066		9.6587
 447		4.4029e+001	5.1316		9.6141
 448		4.4128e+001	5.0520		9.5797
 449		4.4227e+001	4.9843		9.5469
 450		4.4325e+001	4.8928		9.5171
 451		4.4423e+001	4.8185		9.4725
 452		4.4522e+001	4.7375		9.4424
 453		4.4621e+001	4.6579		9.3974
 454		4.4719e+001	4.5909		9.3607
 455		4.4818e+001	4.5073		9.3267
 456		4.4916e+001	4.4191		9.2797
 457		4.5014e+001	4.3461		9.2437
 458		4.5113e+001	4.2658		9.1925
 459		4.5212e+001	4.1935		9.1573
 460		4.5310e+001	4.1166		9.1131
 461		4.5408e+001	4.0449		9.0681
 462		4.5507e+001	3.9653		9.0227
 463		4.5605e+001	3.8678		8.9750
 464		4.5704e+001	3.7981		8.9296
 465		4.5803e+001	3.7265		8.8749
 466		4.5901e+001	3.6376		8.8354
 467		4.5999e+001	3.5759		8.7810
 468		4.6098e+001	3.4817		8.7345
 469		4.6197e+001	3.4014		8.6774
 470		4.6295e+001	3.3251		8.6250
 471		4.6394e+001	3.2488		8.5710
 472		4.6492e+001	3.1639		8.5147
 473		4.6590e+001	3.1121		8.4575
 474		4.6689e+001	3.0066		8.3973
 475		4.6788e+001	2.9257		8.3363
 476		4.6886e+001	2.8527		8.2776
 477		4.6984e+001	2.7824		8.2135
 478		4.7083e+001	2.6935		8.1482
 479		4.7182e+001	2.6225		8.0793
 480		4.7280e+001	2.5502		8.0148
 481		4.7379e+001	2.4786		7.9479
 482		4.7477e+001	2.3870		7.8736
 483		4.7575e+001	2.3061		7.8004
 484		4.7674e+001	2.2211		7.7281
 485		4.7773e+001	2.1409		7.6510
 486		4.7871e+001	2.0646		7.5673
 487		4.7969e+001	1.9969		7.4809
 488		4.8068e+001	1.9193		7.4015
 489		4.8166e+001	1.8470		7.3150
 490		4.8265e+001	1.7455		7.2208
 491		4.8364e+001	1.6765		7.1320
 492		4.8462e+001	1.5929		7.0369
 493		4.8560e+001	1.5246		6.9411
 494		4.8659e+001	1.4443		6.8355
 495		4.8758e+001	1.3494		6.7326
 496		4.8856e+001	1.2831		6.6200
 497		4.8955e+001	1.2108		6.5101
 498		4.9053e+001	1.1146		6.3939
 499		4.9151e+001	1.0495		6.2754
 500		4.9250e+001	0.9706		6.1541
 501		4.9349e+001	0.8963		6.0219
 502		4.9447e+001	0.8167		5.8909
 503		4.9545e+001	0.7377		5.7521
 504		4.9644e+001	0.6462		5.6085
 505		4.9743e+001	0.5699		5.4532
 506		4.9841e+001	0.4949		5.2956
 507		4.9940e+001	0.4213		5.1380
 508		5.0038e+001	0.3403		4.9635
 509		5.0136e+001	0.2488		4.7856
 510		5.0235e+001	0.1798		4.5943
 511		5.0334e+001	0.1081		4.4030
 512		5.0432e+001	0.0212		4.1961
 513		5.0531e+001	-0.0318		3.9732
 514		5.0629e+001	-0.1320		3.7451
 515		5.0727e+001	-0.1924		3.5011
 516		5.0826e+001	-0.2926		3.2406
 517		5.0925e+001	-0.3622		2.9722
 518		5.1023e+001	-0.4312		2.6805
 519		5.1121e+001	-0.5128		2.3699
 520		5.1220e+001	-0.6070		2.0437
 521		5.1319e+001	-0.6714		1.6991
 522		5.1417e+001	-0.7596		1.3447
 523		5.1516e+001	-0.8313		0.9833
 524		5.1614e+001	-0.9208		0.6055
 525		5.1712e+001	-0.9865		0.2362
 526		5.1811e+001	-1.0694		-0.1314
 527		5.1910e+001	-1.1577		-0.4838
 528		5.2008e+001	-1.2313		-0.8143
 529		5.2106e+001	-1.3023		-1.1378
 530		5.2205e+001	-1.3885		-1.4359
 531		5.2304e+001	-1.4721		-1.7214
 532		5.2402e+001	-1.5491		-1.9901
 533		5.2501e+001	-1.6201		-2.2361
 534		5.2599e+001	-1.6911		-2.4841
 535		5.2697e+001	-1.7747		-2.7086
 536		5.2796e+001	-1.8616		-2.9292
 537		5.2895e+001	-1.9345		-3.1354
 538		5.2993e+001	-2.0208		-3.3399
 539		5.3092e+001	-2.0978		-3.5237
 540		5.3190e+001	-2.1714		-3.7060
 541		5.3288e+001	-2.2590		-3.8809
 542		5.3387e+001	-2.3339		-4.0514
 543		5.3486e+001	-2.4003		-4.2094
 544		5.3584e+001	-2.4746		-4.3635
 545		5.3682e+001	-2.5343		-4.5110
 546		5.3781e+001	-2.6398		-4.6616
 547		5.3880e+001	-2.7154		-4.7985
 548		5.3978e+001	-2.8010		-4.9307
 549		5.4077e+001	-2.8746		-5.0586
 550		5.4175e+001	-2.9629		-5.1786
 551		5.4273e+001	-3.0259		-5.3011
 552		5.4372e+001	-3.1121		-5.4180
 553		5.4471e+001	-3.1904		-5.5287
 554		5.4569e+001	-3.2481		-5.6406
 555		5.4667e+001	-3.3403		-5.7509
 556		5.4766e+001	-3.4299		-5.8491
 557		5.4865e+001	-3.5016		-5.9476
 558		5.4963e+001	-3.5825		-6.0478
 559		5.5062e+001	-3.6687		-6.1479
 560		5.5160e+001	-3.7510		-6.2382
 561		5.5258e+001	-3.8147		-6.3274
 562		5.5357e+001	-3.9016		-6.4096
 563		5.5456e+001	-3.9514		-6.4964
 564		5.5554e+001	-4.0489		-6.5781
 565		5.5653e+001	-4.1199		-6.6587
 566		5.5751e+001	-4.2260		-6.7393
 567		5.5849e+001	-4.2910		-6.8159
 568		5.5948e+001	-4.3733		-6.8934
 569		5.6047e+001	-4.4423		-6.9669
 570		5.6145e+001	-4.5272		-7.0342
 571		5.6243e+001	-4.5916		-7.1046
 572		5.6342e+001	-4.6732		-7.1750
 573		5.6441e+001	-4.7501		-7.2478
 574		5.6539e+001	-4.8377		-7.3131
 575		5.6638e+001	-4.9200		-7.3800
 576		5.6736e+001	-4.9883		-7.4429
 577		5.6834e+001	-5.0692		-7.5055
 578		5.6933e+001	-5.1449		-7.5634
 579		5.7032e+001	-5.2238		-7.6256
 580		5.7130e+001	-5.3087		-7.6843
 581		5.7228e+001	-5.3844		-7.7472
 582		5.7327e+001	-5.4666		-7.8020
 583		5.7426e+001	-5.5383		-7.8630
 584		5.7524e+001	-5.6345		-7.9143
 585		5.7623e+001	-5.7068		-7.9678
 586		5.7721e+001	-5.7897		-8.0199
 587		5.7819e+001	-5.8594		-8.0801
 588		5.7918e+001	-5.9377		-8.1309
 589		5.8017e+001	-6.0325		-8.1779
 590		5.8115e+001	-6.0909		-8.2236
 591		5.8214e+001	-6.1778		-8.2745
 592		5.8312e+001	-6.2714		-8.3203
 593		5.8410e+001	-6.3404		-8.3770
 594		5.8509e+001	-6.4153		-8.4188
 595		5.8608e+001	-6.4890		-8.4669
 596		5.8706e+001	-6.5785		-8.5076
 597		5.8804e+001	-6.6402		-8.5534
 598		5.8903e+001	-6.7258		-8.5913
 599		5.9002e+001	-6.7988		-8.6410
 600		5.9100e+001	-6.8837		-8.6852
 601		5.9199e+001	-6.9726		-8.7263
 602		5.9297e+001	-7.0462		-8.7705
 603		5.9395e+001	-7.1172		-8.8111
 604		5.9494e+001	-7.1988		-8.8487
 605		5.9593e+001	-7.2745		-8.8894
 606		5.9691e+001	-7.3534		-8.9308
 607		5.9789e+001	-7.4383		-8.9664
 608		5.9888e+001	-7.5226		-9.0094
 609		5.9986e+001	-7.5976		-9.0446
 610		6.0085e+001	-7.6752		-9.0841
 611		6.0184e+001	-7.7548		-9.1213
 612		6.0282e+001	-7.8271		-9.1581
 613		6.0380e+001	-7.9087		-9.1976
 614		6.0479e+001	-7.9803		-9.2257
 615		6.0578e+001	-8.0221		-9.2672
 616		6.0676e+001	-8.1489		-9.2981
 617		6.0775e+001	-8.2185		-9.3364
 618		6.0873e+001	-8.2975		-9.3681
 619		6.0971e+001	-8.3757		-9.4014
 620		6.1070e+001	-8.4593		-9.4311
 621		6.1169e+001	-8.5317		-9.4679
 622		6.1267e+001	-8.6113		-9.4984
 623		6.1365e+001	-8.6895		-9.5308
 624		6.1464e+001	-8.7784		-9.5598
 625		6.1563e+001	-8.8335		-9.5934
 626		6.1661e+001	-8.9237		-9.6313
 627		6.1760e+001	-9.0007		-9.6615
 628		6.1858e+001	-9.0816		-9.6810
 629		6.1956e+001	-9.1533		-9.7217
 630		6.2055e+001	-9.2389		-9.7518
 631		6.2154e+001	-9.3072		-9.7819
 632		6.2252e+001	-9.3888		-9.8062
 633		6.2350e+001	-9.4777		-9.8398
 634		6.2449e+001	-9.5540		-9.8680
 635		6.2547e+001	-9.6263		-9.8961
 636		6.2646e+001	-9.7119		-9.9270
 637		6.2745e+001	-9.7908		-9.9509
 638		6.2843e+001	-9.8718		-9.9818
 639		6.2941e+001	-9.9507		-10.0025
 640		6.3040e+001	-10.0224		-10.0315
 641		6.3139e+001	-10.0821		-10.0620
 642		6.3237e+001	-10.1849		-10.0858
 643		6.3336e+001	-10.2672		-10.1167
 644		6.3434e+001	-10.3382		-10.1406
 645		6.3532e+001	-10.4271		-10.1715
 646		6.3631e+001	-10.4914		-10.1915
 647		6.3730e+001	-10.5724		-10.2220
 648		6.3828e+001	-10.6493		-10.2458
 649		6.3926e+001	-10.7170		-10.2673
 650		6.4025e+001	-10.8245		-10.2971
 651		6.4124e+001	-10.8875		-10.3209
 652		6.4222e+001	-10.9658		-10.3448
 653		6.4320e+001	-11.0381		-10.3639
 654		6.4419e+001	-11.1243		-10.3937
 655		6.4517e+001	-11.1986		-10.4144
 656		6.4616e+001	-11.2822		-10.4418
 657		6.4715e+001	-11.3426		-10.4653
 658		6.4813e+001	-11.4315		-10.4903
 659		6.4912e+001	-11.4892		-10.5122
 660		6.5010e+001	-11.5940		-10.5353
 661		6.5109e+001	-11.6690		-10.5529
 662		6.5207e+001	-11.7446		-10.5752
 663		6.5305e+001	-11.8256		-10.5998
 664		6.5404e+001	-11.8992		-10.6241
 665		6.5502e+001	-11.9728		-10.6467
 666		6.5601e+001	-12.0591		-10.6694
 667		6.5700e+001	-12.1281		-10.6905
 668		6.5798e+001	-12.2150		-10.7070
 669		6.5897e+001	-12.2919		-10.7301
 670		6.5995e+001	-12.3716		-10.7535
 671		6.6094e+001	-12.4432		-10.7750
 672		6.6192e+001	-12.5334		-10.7969
 673		6.6290e+001	-12.5945		-10.8188
 674		6.6389e+001	-12.6767		-10.8396
 675		6.6487e+001	-12.7471		-10.8576
 676		6.6586e+001	-12.8333		-10.8799
 677		6.6685e+001	-12.9215		-10.8955
 678		6.6783e+001	-13.0138		-10.9186
 679		6.6882e+001	-13.0748		-10.9405
 680		6.6980e+001	-13.1478		-10.9518
 681		6.7079e+001	-13.2181		-10.9784
 682		6.7177e+001	-13.2997		-11.0003
 683		6.7275e+001	-13.3753		-11.0117
 684		6.7374e+001	-13.4742		-11.0347
 685		6.7472e+001	-13.5385		-11.0566
 686		6.7571e+001	-13.6361		-11.0778
 687		6.7669e+001	-13.7090		-11.0950
 688		6.7768e+001	-13.7860		-11.1145
 689		6.7867e+001	-13.8629		-11.1349
 690		6.7965e+001	-13.9339		-11.1458
 691		6.8064e+001	-14.0242		-11.1650
 692		6.8162e+001	-14.1031		-11.1865
 693		6.8260e+001	-14.1675		-11.2049
 694		6.8359e+001	-14.2637		-11.2225
 695		6.8457e+001	-14.3253		-11.2397
 696		6.8556e+001	-14.4036		-11.2585
 697		6.8654e+001	-14.4633		-11.2745
 698		6.8753e+001	-14.5609		-11.2921
 699		6.8852e+001	-14.6292		-11.3144
 700		6.8950e+001	-14.7254		-11.3281
 701		6.9049e+001	-14.7990		-11.3430
 702		6.9147e+001	-14.8846		-11.3598
 703		6.9246e+001	-14.9642		-11.3770
 704		6.9344e+001	-15.0346		-11.3962
 705		6.9442e+001	-15.1002		-11.4110
 706		6.9541e+001	-15.1938		-11.4286
 707		6.9639e+001	-15.2747		-11.4470
 708		6.9738e+001	-15.3497		-11.4701
 709		6.9837e+001	-15.4313		-11.4779
 710		6.9935e+001	-15.5182		-11.4990
 711		7.0034e+001	-15.5845		-11.5139
 712		7.0132e+001	-15.6595		-11.5280
 713		7.0231e+001	-15.7384		-11.5436
 714		7.0329e+001	-15.8141		-11.5604
 715		7.0427e+001	-15.8944		-11.5737
 716		7.0526e+001	-15.9852		-11.5968
 717		7.0624e+001	-16.0536		-11.6105
 718		7.0723e+001	-16.1518		-11.6222
 719		7.0822e+001	-16.2201		-11.6430
 720		7.0920e+001	-16.2957		-11.6578
 721		7.1019e+001	-16.3733		-11.6688
 722		7.1117e+001	-16.4583		-11.6903
 723		7.1216e+001	-16.5047		-11.7032
 724		7.1314e+001	-16.6215		-11.7149
 725		7.1412e+001	-16.6865		-11.7388
 726		7.1511e+001	-16.7893		-11.7462
 727		7.1609e+001	-16.8530		-11.7666
 728		7.1708e+001	-16.9220		-11.7783
 729		7.1807e+001	-17.0036		-11.7959
 730		7.1905e+001	-17.0912		-11.8112
 731		7.2004e+001	-17.1801		-11.8213
 732		7.2102e+001	-17.2331		-11.8381
 733		7.2201e+001	-17.3134		-11.8518
 734		7.2299e+001	-17.4103		-11.8683
 735		7.2397e+001	-17.4892		-11.8819
 736		7.2496e+001	-17.5615		-11.8956
 737		7.2594e+001	-17.6252		-11.9179
 738		7.2693e+001	-17.7101		-11.9230
 739		7.2791e+001	-17.7924		-11.9387
 740		7.2890e+001	-17.8581		-11.9555
 741		7.2989e+001	-17.9423		-11.9676
 742		7.3087e+001	-18.0346		-11.9754
 743		7.3186e+001	-18.1016		-11.9954
 744		7.3284e+001	-18.1805		-12.0102
 745		7.3382e+001	-18.2668		-12.0220
 746		7.3481e+001	-18.3351		-12.0345
 747		7.3579e+001	-18.4154		-12.0478
 748		7.3678e+001	-18.5076		-12.0619
 749		7.3776e+001	-18.5713		-12.0783
 750		7.3875e+001	-18.6588		-12.0893
 751		7.3974e+001	-18.7285		-12.1061
 752		7.4072e+001	-18.8181		-12.1151
 753		7.4171e+001	-18.8950		-12.1295
 754		7.4269e+001	-18.9740		-12.1424
 755		7.4368e+001	-19.0390		-12.1538
 756		7.4466e+001	-19.1093		-12.1710
 757		7.4564e+001	-19.2035		-12.1800
 758		7.4663e+001	-19.2818		-12.1988
 759		7.4761e+001	-19.3535		-12.2101
 760		7.4860e+001	-19.4404		-12.2242
 761		7.4959e+001	-19.5034		-12.2301
 762		7.5057e+001	-19.5976		-12.2441
 763		7.5156e+001	-19.6779		-12.2602
 764		7.5254e+001	-19.6885		-12.2700
 765		7.5353e+001	-19.7197		-12.2727
 766		7.5451e+001	-19.7144		-12.2754
 767		7.5549e+001	-19.7024		-12.2782
 768		7.5648e+001	-19.6679		-12.2829
 769		7.5746e+001	-19.5996		-12.2833
 770		7.5845e+001	-19.5724		-12.2801
 771		7.5944e+001	-19.5240		-12.2805
 772		7.6042e+001	-19.4808		-12.2758
 773		7.6141e+001	-19.4118		-12.2692
 774		7.6239e+001	-19.3435		-12.2700
 775		7.6338e+001	-19.2719		-12.2649
 776		7.6436e+001	-19.2141		-12.2590
 777		7.6534e+001	-19.1385		-12.2516
 778		7.6633e+001	-19.0695		-12.2563
 779		7.6731e+001	-18.9786		-12.2453
 780		7.6830e+001	-18.9063		-12.2445
 781		7.6929e+001	-18.8400		-12.2355
 782		7.7027e+001	-18.7603		-12.2254
 783		7.7126e+001	-18.6980		-12.2250
 784		7.7224e+001	-18.6124		-12.2222
 785		7.7323e+001	-18.5308		-12.2121
 786		7.7421e+001	-18.4598		-12.2062
 787		7.7519e+001	-18.3928		-12.2007
 788		7.7618e+001	-18.3225		-12.1956
 789		7.7716e+001	-18.2303		-12.1855
 790		7.7815e+001	-18.1527		-12.1823
 791		7.7913e+001	-18.0797		-12.1730
 792		7.8012e+001	-18.0040		-12.1659
 793		7.8111e+001	-17.9145		-12.1643
 794		7.8209e+001	-17.8408		-12.1491
 795		7.8308e+001	-17.7360		-12.1436
 796		7.8406e+001	-17.6796		-12.1358
 797		7.8504e+001	-17.6120		-12.1288
 798		7.8603e+001	-17.5317		-12.1237
 799		7.8701e+001	-17.4567		-12.1166
 800		7.8800e+001	-17.3758		-12.1096
 801		7.8898e+001	-17.2749		-12.0971
 802		7.8997e+001	-17.2192		-12.0893
 803		7.9096e+001	-17.1343		-12.0842
 804		7.9194e+001	-17.0540		-12.0724
 805		7.9293e+001	-16.9923		-12.0673
 806		7.9391e+001	-16.9074		-12.0576
 807		7.9490e+001	-16.8285		-12.0509
 808		7.9588e+001	-16.7462		-12.0376
 809		7.9686e+001	-16.6606		-12.0286
 810		7.9785e+001	-16.5856		-12.0228
 811		7.9883e+001	-16.4987		-12.0173
 812		7.9982e+001	-16.4304		-12.0048
 813		8.0081e+001	-16.3375		-11.9985
 814		8.0179e+001	-16.2752		-11.9919
 815		8.0278e+001	-16.1750		-11.9833
 816		8.0376e+001	-16.1040		-11.9723
 817		8.0475e+001	-16.0098		-11.9649
 818		8.0573e+001	-15.9521		-11.9555
 819		8.0671e+001	-15.8658		-11.9437
 820		8.0770e+001	-15.7975		-11.9348
 821		8.0868e+001	-15.7106		-11.9234
 822		8.0967e+001	-15.6356		-11.9125
 823		8.1066e+001	-15.5567		-11.9062
 824		8.1164e+001	-15.4737		-11.8964
 825		8.1263e+001	-15.3901		-11.8859
 826		8.1361e+001	-15.3198		-11.8784
 827		8.1460e+001	-15.2409		-11.8667
 828		8.1558e+001	-15.1659		-11.8600
 829		8.1656e+001	-15.0896		-11.8507
 830		8.1755e+001	-15.0120		-11.8370
 831		8.1853e+001	-14.9251		-11.8288
 832		8.1952e+001	-14.8521		-11.8198
 833		8.2051e+001	-14.7499		-11.8100
 834		8.2149e+001	-14.6703		-11.7959
 835		8.2248e+001	-14.6119		-11.7916
 836		8.2346e+001	-14.5483		-11.7799
 837		8.2445e+001	-14.4560		-11.7693
 838		8.2543e+001	-14.3738		-11.7591
 839		8.2641e+001	-14.2968		-11.7478
 840		8.2740e+001	-14.2311		-11.7357
 841		8.2838e+001	-14.1409		-11.7255
 842		8.2937e+001	-14.0587		-11.7149
 843		8.3035e+001	-13.9824		-11.7079
 844		8.3134e+001	-13.9027		-11.6938
 845		8.3233e+001	-13.8364		-11.6801
 846		8.3331e+001	-13.7449		-11.6680
 847		8.3430e+001	-13.6851		-11.6570
 848		8.3528e+001	-13.5876		-11.6500
 849		8.3626e+001	-13.5027		-11.6383
 850		8.3725e+001	-13.4397		-11.6265
 851		8.3823e+001	-13.3621		-11.6132
 852		8.3922e+001	-13.2778		-11.5995
 853		8.4020e+001	-13.2022		-11.5980
 854		8.4119e+001	-13.1272		-11.5862
 855		8.4218e+001	-13.0549		-11.5745
 856		8.4316e+001	-12.9773		-11.5538
 857		8.4415e+001	-12.8811		-11.5507
 858		8.4513e+001	-12.8127		-11.5338
 859		8.4612e+001	-12.7398		-11.5194
 860		8.4710e+001	-12.6535		-11.5096
 861		8.4808e+001	-12.5759		-11.4955
 862		8.4907e+001	-12.4969		-11.4818
 863		8.5005e+001	-12.4233		-11.4685
 864		8.5104e+001	-12.3278		-11.4607
 865		8.5203e+001	-12.2336		-11.4454
 866		8.5301e+001	-12.1812		-11.4329
 867		8.5400e+001	-12.1029		-11.4212
 868		8.5498e+001	-12.0259		-11.4079
 869		8.5597e+001	-11.9490		-11.3985
 870		8.5695e+001	-11.8700		-11.3801
 871		8.5793e+001	-11.7864		-11.3699
 872		8.5892e+001	-11.6995		-11.3547
 873		8.5990e+001	-11.6285		-11.3394
 874		8.6089e+001	-11.5555		-11.3273
 875		8.6188e+001	-11.4753		-11.3136
 876		8.6286e+001	-11.4016		-11.3038
 877		8.6385e+001	-11.3081		-11.2882
 878		8.6483e+001	-11.2344		-11.2714
 879		8.6582e+001	-11.1582		-11.2593
 880		8.6680e+001	-11.0991		-11.2471
 881		8.6778e+001	-10.9923		-11.2319
 882		8.6877e+001	-10.9273		-11.2166
 883		8.6975e+001	-10.8497		-11.2014
 884		8.7074e+001	-10.7813		-11.1873
 885		8.7172e+001	-10.6865		-11.1716
 886		8.7271e+001	-10.6075		-11.1540
 887		8.7370e+001	-10.5425		-11.1419
 888		8.7468e+001	-10.4483		-11.1259
 889		8.7567e+001	-10.3720		-11.1145
 890		8.7665e+001	-10.3003		-11.0954
 891		8.7763e+001	-10.2260		-11.0813
 892		8.7862e+001	-10.1352		-11.0625
 893		8.7960e+001	-10.0542		-11.0516
 894		8.8059e+001	-9.9865		-11.0355
 895		8.8157e+001	-9.8963		-11.0156
 896		8.8256e+001	-9.8326		-11.0038
 897		8.8355e+001	-9.7398		-10.9839
 898		8.8453e+001	-9.6781		-10.9640
 899		8.8552e+001	-9.5872		-10.9526
 900		8.8650e+001	-9.5089		-10.9276
 901		8.8749e+001	-9.4339		-10.9221
 902		8.8847e+001	-9.3510		-10.8947
 903		8.8945e+001	-9.2727		-10.8830
 904		8.9044e+001	-9.1997		-10.8666
 905		8.9142e+001	-9.1254		-10.8505
 906		8.9241e+001	-9.0392		-10.8243
 907		8.9340e+001	-8.9503		-10.8098
 908		8.9438e+001	-8.8899		-10.7958
 909		8.9537e+001	-8.8116		-10.7719
 910		8.9635e+001	-8.7240		-10.7527
 911		8.9734e+001	-8.6524		-10.7371
 912		8.9832e+001	-8.5721		-10.7164
 913		8.9930e+001	-8.4958		-10.7003
 914		9.0029e+001	-8.4109		-10.6769
 915		9.0127e+001	-8.3306		-10.6589
 916		9.0226e+001	-8.2696		-10.6424
 917		9.0325e+001	-8.1761		-10.6201
 918		9.0423e+001	-8.1051		-10.5975
 919		9.0522e+001	-8.0182		-10.5783
 920		9.0620e+001	-7.9425		-10.5591
 921		9.0719e+001	-7.8576		-10.5411
 922		9.0817e+001	-7.7800		-10.5138
 923		9.0915e+001	-7.6937		-10.4997
 924		9.1014e+001	-7.6294		-10.4735
 925		9.1112e+001	-7.5359		-10.4516
 926		9.1211e+001	-7.4761		-10.4297
 927		9.1310e+001	-7.3952		-10.4027
 928		9.1408e+001	-7.3163		-10.3808
 929		9.1507e+001	-7.2240		-10.3604
 930		9.1605e+001	-7.1484		-10.3350
 931		9.1704e+001	-7.0688		-10.3092
 932		9.1802e+001	-6.9932		-10.2928
 933		9.1900e+001	-6.9155		-10.2669
 934		9.1999e+001	-6.8512		-10.2396
 935		9.2097e+001	-6.7669		-10.2153
 936		9.2196e+001	-6.6946		-10.1848
 937		9.2294e+001	-6.5971		-10.1668
 938		9.2393e+001	-6.5274		-10.1351
 939		9.2492e+001	-6.4498		-10.1113
 940		9.2590e+001	-6.3742		-10.0835
 941		9.2689e+001	-6.2899		-10.0538
 942		9.2787e+001	-6.2170		-10.0260
 943		9.2885e+001	-6.1314		-10.0029
 944		9.2984e+001	-6.0650		-9.9755
 945		9.3082e+001	-5.9768		-9.9450
 946		9.3181e+001	-5.8939		-9.9110
 947		9.3279e+001	-5.8209		-9.8883
 948		9.3378e+001	-5.7320		-9.8527
 949		9.3477e+001	-5.6544		-9.8214
 950		9.3575e+001	-5.5807		-9.7831
 951		9.3674e+001	-5.5005		-9.7557
 952		9.3772e+001	-5.4202		-9.7272
 953		9.3871e+001	-5.3353		-9.6924
 954		9.3969e+001	-5.2450		-9.6607
 955		9.4067e+001	-5.1601		-9.6243
 956		9.4166e+001	-5.0998		-9.5895
 957		9.4264e+001	-5.0162		-9.5535
 958		9.4363e+001	-4.9405		-9.5175
 959		9.4462e+001	-4.8689		-9.4831
 960		9.4560e+001	-4.7886		-9.4456
 961		9.4659e+001	-4.6984		-9.4139
 962		9.4757e+001	-4.6181		-9.3705
 963		9.4856e+001	-4.5471		-9.3306
 964		9.4954e+001	-4.4662		-9.2954
 965		9.5052e+001	-4.3919		-9.2527
 966		9.5151e+001	-4.3262		-9.2132
 967		9.5249e+001	-4.2446		-9.1714
 968		9.5348e+001	-4.1570		-9.1295
 969		9.5447e+001	-4.0681		-9.0806
 970		9.5545e+001	-4.0031		-9.0333
 971		9.5644e+001	-3.9202		-8.9958
 972		9.5742e+001	-3.8479		-8.9453
 973		9.5841e+001	-3.7729		-8.9011
 974		9.5939e+001	-3.6886		-8.8499
 975		9.6037e+001	-3.6130		-8.7955
 976		9.6136e+001	-3.5308		-8.7435
 977		9.6234e+001	-3.4438		-8.6997
 978		9.6333e+001	-3.3755		-8.6383
 979		9.6432e+001	-3.3012		-8.5898
 980		9.6530e+001	-3.2236		-8.5358
 981		9.6629e+001	-3.1420		-8.4755
 982		9.6727e+001	-3.0737		-8.4223
 983		9.6826e+001	-2.9775		-8.3660
 984		9.6924e+001	-2.9051		-8.2999
 985		9.7022e+001	-2.8288		-8.2397
 986		9.7121e+001	-2.7399		-8.1720
 987		9.7219e+001	-2.6663		-8.1075
 988		9.7318e+001	-2.5907		-8.0426
 989		9.7416e+001	-2.5164		-7.9694
 990		9.7515e+001	-2.4308		-7.9049
 991		9.7614e+001	-2.3439		-7.8278
 992		9.7712e+001	-2.2590		-7.7578
 993		9.7811e+001	-2.1886		-7.6792
 994		9.7909e+001	-2.1263		-7.6029
 995		9.8007e+001	-2.0420		-7.5196
 996		9.8106e+001	-1.9644		-7.4375
 997		9.8204e+001	-1.8795		-7.3549
 998		9.8303e+001	-1.7853		-7.2618
 999		9.8401e+001	-1.7223		-7.1774
1000		9.8500e+001	-1.6486		-7.0764
1001		9.8599e+001	-1.5650		-6.9810
1002		9.8697e+001	-1.4987		-6.8801
1003		9.8796e+001	-1.4051		-6.7800
1004		9.8894e+001	-1.3388		-6.6732
1005		9.8993e+001	-1.2439		-6.5644
1006		9.9091e+001	-1.1802		-6.4510
1007		9.9189e+001	-1.0887		-6.3337
1008		9.9288e+001	-1.0243		-6.2120
1009		9.9386e+001	-0.9381		-6.0904
1010		9.9485e+001	-0.8571		-5.9562
1011		9.9584e+001	-0.7755		-5.8232
1012		9.9682e+001	-0.7072		-5.6801
1013		9.9781e+001	-0.6276		-5.5365
1014		9.9879e+001	-0.5493		-5.3871
1015		9.9978e+001	-0.4624		-5.2275
1016		1.0008e+002	-0.4054		-5.0660
1017		1.0017e+002	-0.3138		-4.8943

PMax (µC/cm2):		1.23e+001
Pr (µC/cm2):		4.11e+000
-Pr (µC/cm2):		-4.89e+000
Vc:			1.45e+002
-Vc:			-1.20e+002
C (Max-Eff) (nF):	5.48e+000
Vert. Eccentricity (µC/cm2):	-3.94e-001

Horiz. Eccentricity (Volts):	1.29e+001

Offset (µC/cm2):	3.31e+000



Hysteresis Version: 4.6.11 - Radiant Technologies, Inc., 1999 - 12/12/11

»»»»»»»»»»»»»»»»»»»»»»»»»»»»»»»»»»»» Hysteresis ««««««««««««««««««««««««««««««««««««
»»»  Version:			4.6.11
»»»  Vision Version:		4.6.5 (R)
»»»  Vision Compiled:		7 December 2011
»»»  Driver Version:		4.6.17
»»»  Tester Name:		PPM21211-813
»»»  Tester S/N:		PPM21211-813                    
»»»  Internal Amp Type:		No Internal Amp
»»»  Internal Amp S/N:		100000
»»»  Execution Count:		0
»»»»»»»»»»»»»»»»»»»»»»»»»»»»»»»»»»»»»»»»»»««««««««««««««««««««««««««««««««««««««««««

Stored:				1/16/2024 - 11:59:8
Configured:			01/16/24 11:09:13 AM
Executed:			01/16/24 11:58:30 AM

»»»»»»»»»»»»»»»»»»»»»»»»»»»»»»»»»»» Sample Info ««««««««««««««««««««««««««««««««««««
Sample Name:			
Lot Name:			
Wafer Name:			
Die Row/Column:			0/0
Capacitor Number:		0
Sample Area (cm2):		1.03e+000
Sample Thickness (µm):		1.15e+003

Mux Loop Adjustment:		Disabled

Amplifier:			High Voltage (HVA)
HVI Channel/Port:		1/1
Drive Gain Factor:			1000.00r
Drive Voltage Limit:			4000.00r

»»»»»»»»»»»»»»»»»»»»»»»»»»»»»»»»»»» Tester Info «««««««««««««««««««««««««««««««««««
Tester Name:			PPM21211-813
Tester Serial Number:		PPM21211-813                    
Return Signal Amp. Level:	0.00019

»»»»»»»»»»»»»»»»»»»»»»»»»»»»»»»» Hysteresis Info ««««««««««««««««««««««««««««««««««
Task Name:			Hyst-2
Volts:				2300.00
Field:				20.00 (kV/cm)
Hysteresis Period (ms):		1.00e+002
Preset:				Enabled
Preset Delay (ms):		1.00e+002
Profile:			Standard Bipolar

Sensor Offset:			0.00  
Sensor Scale:			-0.05 
Sensor Impedance (Ohms):	50
Sensor Label:			%

»»»»»»»»»»»»»»»»»»»»»»»»»»»»»»»»»»»»»» Data «««««««««««««««««««««««««««««««««««««««
Points:				1017

Valid Data

Point		Time (ms)	Field (kV/cm)	Measured Polarization	Sensor
   1		9.8500e-002	-0.0113		-2.9805		-6.0242e-003
   2		1.9700e-001	0.0040		-2.9738		-6.1497e-003
   3		2.9550e-001	0.0325		-2.9586		-5.9811e-003
   4		3.9400e-001	0.0756		-2.9370		-6.0851e-003
   5		4.9250e-001	0.1267		-2.9101		-5.9919e-003
   6		5.9100e-001	0.1725		-2.8557		-6.0708e-003
   7		6.8950e-001	0.2441		-2.7849		-6.1425e-003
   8		7.8800e-001	0.3052		-2.6965		-6.2967e-003
   9		8.8650e-001	0.3728		-2.5831		-6.2644e-003
  10		9.8500e-001	0.4385		-2.4372		-6.3361e-003
  11		1.0835e+000	0.5082		-2.2549		-6.3110e-003
  12		1.1820e+000	0.5745		-2.0347		-6.3361e-003
  13		1.2805e+000	0.6415		-1.7781		-6.4150e-003
  14		1.3790e+000	0.7079		-1.4828		-6.5047e-003
  15		1.4775e+000	0.8054		-1.1570		-6.6732e-003
  16		1.5760e+000	0.8751		-0.7944		-6.7449e-003
  17		1.6745e+000	0.9514		-0.4220		-6.5262e-003
  18		1.7730e+000	1.0349		-0.0430		-6.6266e-003
  19		1.8715e+000	1.1139		0.3325		-6.5871e-003
  20		1.9700e+000	1.1822		0.6900		-6.5369e-003
  21		2.0685e+000	1.2738		1.0326		-6.4688e-003
  22		2.1670e+000	1.3454		1.3494		-6.3971e-003
  23		2.2655e+000	1.4244		1.6526		-6.3039e-003
  24		2.3640e+000	1.5060		1.9314		-6.0206e-003
  25		2.4625e+000	1.5823		2.1947		-5.7516e-003
  26		2.5610e+000	1.6619		2.4548		-5.6943e-003
  27		2.6595e+000	1.7309		2.6985		-5.3680e-003
  28		2.7580e+000	1.8078		2.9214		-5.1815e-003
  29		2.8565e+000	1.8928		3.1400		-4.9448e-003
  30		2.9550e+000	1.9783		3.3513		-4.6544e-003
  31		3.0535e+000	2.0506		3.5441		-4.3855e-003
  32		3.1520e+000	2.1322		3.7338		-3.9659e-003
  33		3.2505e+000	2.2019		3.9145		-3.6719e-003
  34		3.3490e+000	2.2835		4.0764		-3.3492e-003
  35		3.4475e+000	2.3605		4.2423		-2.9081e-003
  36		3.5460e+000	2.4321		4.4065		-2.5244e-003
  37		3.6445e+000	2.5197		4.5579		-2.2806e-003
  38		3.7430e+000	2.6026		4.7003		-1.9579e-003
  39		3.8415e+000	2.6756		4.8403		-1.4809e-003
  40		3.9400e+000	2.7565		4.9772		-1.6029e-003
  41		4.0385e+000	2.8355		5.1071		-6.8130e-004
  42		4.1370e+000	2.8992		5.2358		-2.5459e-004
  43		4.2355e+000	2.9794		5.3543		3.1914e-004
  44		4.3340e+000	3.0557		5.4775		6.6338e-004
  45		4.4325e+000	3.1420		5.5882		1.0184e-003
  46		4.5310e+000	3.2216		5.7024		1.4558e-003
  47		4.6295e+000	3.2932		5.8068		1.8718e-003
  48		4.7280e+000	3.3649		5.9124		2.4491e-003
  49		4.8265e+000	3.4637		6.0184		2.7790e-003
  50		4.9250e+000	3.5221		6.1127		3.2308e-003
  51		5.0235e+000	3.6031		6.2050		3.7221e-003
  52		5.1220e+000	3.6893		6.2981		4.0986e-003
  53		5.2205e+000	3.7762		6.3845		4.4966e-003
  54		5.3190e+000	3.8406		6.4717		4.9197e-003
  55		5.4175e+000	3.9321		6.5590		5.5508e-003
  56		5.5160e+000	4.0091		6.6450		5.8305e-003
  57		5.6145e+000	4.0933		6.7240		6.3577e-003
  58		5.7130e+000	4.1544		6.8019		6.7664e-003
  59		5.8115e+000	4.2426		6.8793		7.2182e-003
  60		5.9100e+000	4.3089		6.9517		7.6629e-003
  61		6.0085e+000	4.3912		7.0268		7.9749e-003
  62		6.1070e+000	4.4708		7.1015		8.5665e-003
  63		6.2055e+000	4.5657		7.1672		8.2761e-003
  64		6.3040e+000	4.6234		7.2380		9.3554e-003
  65		6.4025e+000	4.7123		7.3056		9.7964e-003
  66		6.5010e+000	4.7833		7.3710		1.0270e-002
  67		6.5995e+000	4.8642		7.4371		1.0729e-002
  68		6.6980e+000	4.9385		7.5012		1.1195e-002
  69		6.7965e+000	5.0254		7.5630		1.1446e-002
  70		6.8950e+000	5.1031		7.6291		1.1876e-002
  71		6.9935e+000	5.1926		7.6870		1.2952e-002
  72		7.0920e+000	5.2523		7.7457		1.2794e-002
  73		7.1905e+000	5.3446		7.8040		1.3235e-002
  74		7.2890e+000	5.4122		7.8615		1.3658e-002
  75		7.3875e+000	5.4945		7.9197		1.4081e-002
  76		7.4860e+000	5.5655		7.9733		1.4487e-002
  77		7.5845e+000	5.6663		8.0218		1.4799e-002
  78		7.6830e+000	5.7366		8.0762		1.5358e-002
  79		7.7815e+000	5.8415		8.1290		1.5326e-002
  80		7.8800e+000	5.8959		8.1798		1.6072e-002
  81		7.9785e+000	5.9761		8.2272		1.6563e-002
  82		8.0770e+000	6.0518		8.2792		1.6964e-002
  83		8.1755e+000	6.1281		8.3304		1.7352e-002
  84		8.2740e+000	6.1984		8.3754		1.7739e-002
  85		8.3725e+000	6.3019		8.4196		1.8029e-002
  86		8.4710e+000	6.3623		8.4728		1.8456e-002
  87		8.5695e+000	6.4452		8.5131		1.8255e-002
  88		8.6680e+000	6.5215		8.5585		1.9216e-002
  89		8.7665e+000	6.6124		8.6027		1.9611e-002
  90		8.8650e+000	6.6741		8.6433		1.9998e-002
  91		8.9635e+000	6.7583		8.6922		2.0393e-002
  92		9.0620e+000	6.8399		8.7360		2.0826e-002
  93		9.1605e+000	6.9136		8.7732		2.1074e-002
  94		9.2590e+000	6.9938		8.8143		2.1472e-002
  95		9.3575e+000	7.0429		8.8526		2.2107e-002
  96		9.4560e+000	7.1504		8.8952		2.2139e-002
  97		9.5545e+000	7.2274		8.9363		2.2609e-002
  98		9.6530e+000	7.2937		8.9715		2.2921e-002
  99		9.7515e+000	7.3853		9.0114		2.3243e-002
 100		9.8500e+000	7.4596		9.0572		2.3580e-002
 101		9.9485e+000	7.5518		9.0865		2.3882e-002
 102		1.0047e+001	7.6042		9.1213		2.4269e-002
 103		1.0146e+001	7.6971		9.1596		2.4685e-002
 104		1.0244e+001	7.7740		9.1995		2.4982e-002
 105		1.0342e+001	7.8503		9.2285		2.5413e-002
 106		1.0441e+001	7.9173		9.2711		2.5818e-002
 107		1.0540e+001	7.9956		9.2969		2.5990e-002
 108		1.0638e+001	8.0958		9.3411		2.6424e-002
 109		1.0736e+001	8.1780		9.3716		2.6707e-002
 110		1.0835e+001	8.2497		9.4021		2.6216e-002
 111		1.0934e+001	8.3273		9.4366		2.7270e-002
 112		1.1032e+001	8.4056		9.4702		2.7618e-002
 113		1.1131e+001	8.4865		9.5054		2.7987e-002
 114		1.1229e+001	8.5628		9.5379		2.8296e-002
 115		1.1328e+001	8.6292		9.5692		2.8547e-002
 116		1.1426e+001	8.7194		9.6004		2.8830e-002
 117		1.1525e+001	8.7911		9.6290		2.9210e-002
 118		1.1623e+001	8.8773		9.6619		2.9479e-002
 119		1.1722e+001	8.9569		9.6928		2.9809e-002
 120		1.1820e+001	9.0252		9.7201		3.0124e-002
 121		1.1919e+001	9.1115		9.7514		3.0476e-002
 122		1.2017e+001	9.1758		9.7808		3.0705e-002
 123		1.2116e+001	9.2661		9.8117		3.1050e-002
 124		1.2214e+001	9.3443		9.8398		3.1258e-002
 125		1.2313e+001	9.4206		9.8676		3.2003e-002
 126		1.2411e+001	9.4963		9.8973		3.1881e-002
 127		1.2509e+001	9.5925		9.9243		3.2125e-002
 128		1.2608e+001	9.6495		9.9533		3.2441e-002
 129		1.2707e+001	9.7451		9.9767		3.2749e-002
 130		1.2805e+001	9.8141		10.0061		3.2921e-002
 131		1.2903e+001	9.8930		10.0315		3.3262e-002
 132		1.3002e+001	9.9799		10.0651		3.3872e-002
 133		1.3101e+001	10.0608		10.0851		3.3764e-002
 134		1.3199e+001	10.1219		10.1160		3.4022e-002
 135		1.3297e+001	10.2068		10.1398		3.4409e-002
 136		1.3396e+001	10.2758		10.1676		3.4600e-002
 137		1.3495e+001	10.3587		10.1938		3.4868e-002
 138		1.3593e+001	10.4383		10.2181		3.5109e-002
 139		1.3692e+001	10.5345		10.2423		3.5424e-002
 140		1.3790e+001	10.5956		10.2689		3.5647e-002
 141		1.3889e+001	10.6719		10.2920		3.5887e-002
 142		1.3987e+001	10.7528		10.3131		3.6278e-002
 143		1.4086e+001	10.8284		10.3424		3.6529e-002
 144		1.4184e+001	10.9107		10.3600		3.6640e-002
 145		1.4283e+001	10.9956		10.3843		3.6955e-002
 146		1.4381e+001	11.0626		10.4105		3.7120e-002
 147		1.4480e+001	11.1568		10.4351		3.7443e-002
 148		1.4578e+001	11.2305		10.4606		3.7691e-002
 149		1.4677e+001	11.3028		10.4782		3.7967e-002
 150		1.4775e+001	11.3771		10.5040		3.8117e-002
 151		1.4874e+001	11.4567		10.5212		3.8451e-002
 152		1.4972e+001	11.5443		10.5462		3.8515e-002
 153		1.5070e+001	11.6119		10.5736		3.8802e-002
 154		1.5169e+001	11.6723		10.5939		3.9171e-002
 155		1.5268e+001	11.7672		10.6158		3.9333e-002
 156		1.5366e+001	11.8441		10.6346		3.9623e-002
 157		1.5464e+001	11.9191		10.6596		3.9864e-002
 158		1.5563e+001	11.9987		10.6784		4.0064e-002
 159		1.5662e+001	12.0850		10.7035		4.0279e-002
 160		1.5760e+001	12.1666		10.7226		4.0405e-002
 161		1.5858e+001	12.2674		10.7426		4.0322e-002
 162		1.5957e+001	12.3152		10.7649		4.0875e-002
 163		1.6055e+001	12.3981		10.7860		4.1090e-002
 164		1.6154e+001	12.4704		10.8040		4.1470e-002
 165		1.6253e+001	12.5593		10.8263		4.1624e-002
 166		1.6351e+001	12.6237		10.8454		4.1796e-002
 167		1.6450e+001	12.7132		10.8626		4.1872e-002
 168		1.6548e+001	12.7928		10.8853		4.2219e-002
 169		1.6647e+001	12.8877		10.9002		4.2169e-002
 170		1.6745e+001	12.9507		10.9217		4.2646e-002
 171		1.6843e+001	13.0217		10.9471		4.2822e-002
 172		1.6942e+001	13.0954		10.9667		4.3073e-002
 173		1.7041e+001	13.1783		10.9851		4.3205e-002
 174		1.7139e+001	13.2473		11.0019		4.3421e-002
 175		1.7238e+001	13.3362		11.0164		4.3560e-002
 176		1.7336e+001	13.4231		11.0441		4.3801e-002
 177		1.7435e+001	13.5173		11.0598		4.3933e-002
 178		1.7533e+001	13.5671		11.0746		4.4285e-002
 179		1.7631e+001	13.6540		11.0934		4.4443e-002
 180		1.7730e+001	13.7336		11.1118		4.4651e-002
 181		1.7828e+001	13.7999		11.1349		4.4876e-002
 182		1.7927e+001	13.8769		11.1501		4.4984e-002
 183		1.8026e+001	13.9605		11.1642		4.5210e-002
 184		1.8124e+001	14.0255		11.1834		4.5350e-002
 185		1.8223e+001	14.1336		11.1955		4.5576e-002
 186		1.8321e+001	14.1966		11.2237		4.5834e-002
 187		1.8419e+001	14.2842		11.2374		4.5999e-002
 188		1.8518e+001	14.3572		11.2561		4.6218e-002
 189		1.8616e+001	14.4388		11.2690		4.6365e-002
 190		1.8715e+001	14.5098		11.2913		4.6680e-002
 191		1.8814e+001	14.5881		11.3050		4.6734e-002
 192		1.8912e+001	14.6610		11.3191		4.7204e-002
 193		1.9011e+001	14.7619		11.3355		4.7075e-002
 194		1.9109e+001	14.8289		11.3567		4.7372e-002
 195		1.9208e+001	14.8992		11.3723		4.7544e-002
 196		1.9306e+001	14.9768		11.3903		4.7695e-002
 197		1.9404e+001	15.0657		11.4020		4.7885e-002
 198		1.9503e+001	15.1407		11.4239		4.7932e-002
 199		1.9602e+001	15.2157		11.4357		4.8226e-002
 200		1.9700e+001	15.2920		11.4533		4.8365e-002
 201		1.9799e+001	15.3828		11.4677		4.8577e-002
 202		1.9897e+001	15.4518		11.4877		4.8728e-002
 203		1.9996e+001	15.5348		11.4951		4.8921e-002
 204		2.0094e+001	15.6078		11.5115		4.9065e-002
 205		2.0192e+001	15.6887		11.5381		4.9205e-002
 206		2.0291e+001	15.7650		11.5456		4.9405e-002
 207		2.0390e+001	15.8678		11.5542		4.9237e-002
 208		2.0488e+001	15.9043		11.5800		4.9739e-002
 209		2.0587e+001	15.9992		11.5882		4.9983e-002
 210		2.0685e+001	16.0781		11.6109		5.0054e-002
 211		2.0784e+001	16.1571		11.6226		5.0252e-002
 212		2.0882e+001	16.2440		11.6406		5.0305e-002
 213		2.0980e+001	16.3249		11.6582		5.0499e-002
 214		2.1079e+001	16.4198		11.6668		5.0381e-002
 215		2.1177e+001	16.4815		11.6844		5.0876e-002
 216		2.1276e+001	16.5571		11.6922		5.0997e-002
 217		2.1375e+001	16.6420		11.7118		5.1162e-002
 218		2.1473e+001	16.7137		11.7290		5.1306e-002
 219		2.1572e+001	16.7893		11.7462		5.1525e-002
 220		2.1670e+001	16.8749		11.7529		5.1625e-002
 221		2.1769e+001	16.9591		11.7662		5.1725e-002
 222		2.1867e+001	17.0195		11.7834		5.1811e-002
 223		2.1965e+001	17.1104		11.7951		5.2055e-002
 224		2.2064e+001	17.1920		11.8088		5.2080e-002
 225		2.2163e+001	17.2710		11.8272		5.2342e-002
 226		2.2261e+001	17.3473		11.8424		5.2489e-002
 227		2.2360e+001	17.4182		11.8514		5.2740e-002
 228		2.2458e+001	17.4998		11.8706		5.2751e-002
 229		2.2557e+001	17.5894		11.8800		5.2661e-002
 230		2.2655e+001	17.6624		11.8980		5.3117e-002
 231		2.2753e+001	17.7400		11.9089		5.3127e-002
 232		2.2852e+001	17.8090		11.9222		5.3407e-002
 233		2.2951e+001	17.8933		11.9391		5.3497e-002
 234		2.3049e+001	17.9662		11.9492		5.3583e-002
 235		2.3148e+001	18.0551		11.9629		5.3923e-002
 236		2.3246e+001	18.1321		11.9793		5.4071e-002
 237		2.3345e+001	18.2163		11.9809		5.4017e-002
 238		2.3443e+001	18.2814		12.0036		5.4167e-002
 239		2.3541e+001	18.3590		12.0169		5.4408e-002
 240		2.3640e+001	18.4419		12.0255		5.4458e-002
 241		2.3738e+001	18.5222		12.0411		5.4619e-002
 242		2.3837e+001	18.6025		12.0494		5.4684e-002
 243		2.3936e+001	18.6887		12.0670		5.4884e-002
 244		2.4034e+001	18.7676		12.0826		5.5003e-002
 245		2.4133e+001	18.8420		12.0920		5.5161e-002
 246		2.4231e+001	18.9096		12.1018		5.5422e-002
 247		2.4329e+001	18.9925		12.1162		5.5519e-002
 248		2.4428e+001	19.0635		12.1319		5.5573e-002
 249		2.4526e+001	19.1571		12.1417		5.5641e-002
 250		2.4625e+001	19.2241		12.1546		5.6057e-002
 251		2.4724e+001	19.3083		12.1643		5.5899e-002
 252		2.4822e+001	19.3800		12.1792		5.6125e-002
 253		2.4921e+001	19.4755		12.1859		5.6315e-002
 254		2.5019e+001	19.5359		12.1988		5.6416e-002
 255		2.5118e+001	19.6208		12.2156		5.6444e-002
 256		2.5216e+001	19.6500		12.2238		5.6573e-002
 257		2.5314e+001	19.6779		12.2273		5.6814e-002
 258		2.5413e+001	19.6540		12.2265		5.6778e-002
 259		2.5512e+001	19.6434		12.2305		5.6900e-002
 260		2.5610e+001	19.5996		12.2277		5.7047e-002
 261		2.5709e+001	19.5697		12.2269		5.7197e-002
 262		2.5807e+001	19.5173		12.2305		5.7190e-002
 263		2.5906e+001	19.4735		12.2261		5.7205e-002
 264		2.6004e+001	19.4351		12.2222		5.7387e-002
 265		2.6102e+001	19.3734		12.2195		5.7248e-002
 266		2.6201e+001	19.2904		12.2160		5.7420e-002
 267		2.6299e+001	19.2201		12.2160		5.7513e-002
 268		2.6398e+001	19.1531		12.2062		5.7581e-002
 269		2.6497e+001	19.0887		12.2007		5.7595e-002
 270		2.6595e+001	19.0091		12.2007		5.7560e-002
 271		2.6694e+001	18.9375		12.1921		5.7570e-002
 272		2.6792e+001	18.8612		12.1894		5.8180e-002
 273		2.6890e+001	18.8048		12.1816		5.7542e-002
 274		2.6989e+001	18.7186		12.1737		5.7642e-002
 275		2.7087e+001	18.6363		12.1683		5.7674e-002
 276		2.7186e+001	18.5540		12.1651		5.7563e-002
 277		2.7285e+001	18.4837		12.1573		5.7577e-002
 278		2.7383e+001	18.4180		12.1526		5.7477e-002
 279		2.7482e+001	18.3397		12.1432		5.7459e-002
 280		2.7580e+001	18.2595		12.1397		5.7330e-002
 281		2.7679e+001	18.1818		12.1331		5.7427e-002
 282		2.7777e+001	18.0910		12.1252		5.7337e-002
 283		2.7875e+001	18.0306		12.1198		5.7359e-002
 284		2.7974e+001	17.9304		12.1069		5.7323e-002
 285		2.8073e+001	17.8727		12.1014		5.7101e-002
 286		2.8171e+001	17.7957		12.0986		5.7154e-002
 287		2.8270e+001	17.7214		12.0885		5.6993e-002
 288		2.8368e+001	17.6372		12.0842		5.7018e-002
 289		2.8467e+001	17.5668		12.0724		5.7043e-002
 290		2.8565e+001	17.4779		12.0701		5.7011e-002
 291		2.8663e+001	17.4003		12.0505		5.6853e-002
 292		2.8762e+001	17.3154		12.0509		5.6771e-002
 293		2.8860e+001	17.2491		12.0404		5.6642e-002
 294		2.8959e+001	17.1681		12.0329		5.6602e-002
 295		2.9058e+001	17.0746		12.0228		5.6530e-002
 296		2.9156e+001	16.9976		12.0134		5.6509e-002
 297		2.9255e+001	16.9253		12.0059		5.6577e-002
 298		2.9353e+001	16.8517		12.0020		5.6315e-002
 299		2.9451e+001	16.7767		11.9903		5.6179e-002
 300		2.9550e+001	16.7004		11.9739		5.6025e-002
 301		2.9648e+001	16.6248		11.9750		5.5942e-002
 302		2.9747e+001	16.5346		11.9649		5.5788e-002
 303		2.9846e+001	16.4702		11.9559		5.5845e-002
 304		2.9944e+001	16.3740		11.9480		5.5770e-002
 305		3.0043e+001	16.2990		11.9355		5.5659e-002
 306		3.0141e+001	16.2188		11.9258		5.5573e-002
 307		3.0240e+001	16.1338		11.9211		5.5523e-002
 308		3.0338e+001	16.0622		11.9085		5.5232e-002
 309		3.0436e+001	15.9859		11.9019		5.4935e-002
 310		3.0535e+001	15.9003		11.8956		5.5118e-002
 311		3.0634e+001	15.8293		11.8816		5.4996e-002
 312		3.0732e+001	15.7331		11.8686		5.4967e-002
 313		3.0831e+001	15.6714		11.8620		5.4770e-002
 314		3.0929e+001	15.5859		11.8565		5.4734e-002
 315		3.1028e+001	15.5102		11.8440		5.4558e-002
 316		3.1126e+001	15.4339		11.8354		5.4282e-002
 317		3.1224e+001	15.3590		11.8331		5.4257e-002
 318		3.1323e+001	15.2721		11.8127		5.4174e-002
 319		3.1422e+001	15.1958		11.8096		5.4146e-002
 320		3.1520e+001	15.1208		11.7920		5.4002e-002
 321		3.1619e+001	15.0518		11.7912		5.3866e-002
 322		3.1717e+001	14.9669		11.7799		5.3680e-002
 323		3.1816e+001	14.8899		11.7650		5.3687e-002
 324		3.1914e+001	14.8116		11.7572		5.3500e-002
 325		3.2013e+001	14.7314		11.7478		5.3414e-002
 326		3.2111e+001	14.6332		11.7392		5.3314e-002
 327		3.2209e+001	14.5635		11.7235		5.3142e-002
 328		3.2308e+001	14.4879		11.7153		5.3102e-002
 329		3.2407e+001	14.4169		11.7087		5.2916e-002
 330		3.2505e+001	14.3346		11.6942		5.2701e-002
 331		3.2603e+001	14.2617		11.6829		5.2679e-002
 332		3.2702e+001	14.1787		11.6770		5.2654e-002
 333		3.2801e+001	14.0991		11.6653		5.2432e-002
 334		3.2899e+001	14.0188		11.6500		5.2374e-002
 335		3.2998e+001	13.9518		11.6398		5.2170e-002
 336		3.3096e+001	13.8729		11.6332		5.2023e-002
 337		3.3194e+001	13.8105		11.6164		5.2016e-002
 338		3.3293e+001	13.7057		11.6117		5.1826e-002
 339		3.3392e+001	13.6248		11.6003		5.1729e-002
 340		3.3490e+001	13.5465		11.5835		5.1614e-002
 341		3.3589e+001	13.4669		11.5733		5.1456e-002
 342		3.3687e+001	13.3966		11.5616		5.1209e-002
 343		3.3785e+001	13.3050		11.5503		5.1141e-002
 344		3.3884e+001	13.2300		11.5362		5.1084e-002
 345		3.3983e+001	13.1717		11.5295		5.0850e-002
 346		3.4081e+001	13.0761		11.5135		5.0876e-002
 347		3.4179e+001	13.0131		11.5068		5.0678e-002
 348		3.4278e+001	12.9156		11.4846		5.0474e-002
 349		3.4377e+001	12.8419		11.4799		5.0424e-002
 350		3.4475e+001	12.7464		11.4709		5.0148e-002
 351		3.4574e+001	12.6801		11.4576		5.0219e-002
 352		3.4672e+001	12.6104		11.4486		4.9929e-002
 353		3.4770e+001	12.5354		11.4306		4.9868e-002
 354		3.4869e+001	12.4479		11.4224		4.9681e-002
 355		3.4968e+001	12.3716		11.4102		4.9491e-002
 356		3.5066e+001	12.2866		11.3954		4.9273e-002
 357		3.5164e+001	12.2183		11.3836		4.9230e-002
 358		3.5263e+001	12.1347		11.3703		4.9058e-002
 359		3.5361e+001	12.0531		11.3567		4.8903e-002
 360		3.5460e+001	11.9762		11.3445		4.8803e-002
 361		3.5559e+001	11.8972		11.3289		4.8688e-002
 362		3.5657e+001	11.8196		11.3187		4.8509e-002
 363		3.5755e+001	11.7367		11.2999		4.8355e-002
 364		3.5854e+001	11.6710		11.2909		4.8172e-002
 365		3.5953e+001	11.6139		11.2800		4.7863e-002
 366		3.6051e+001	11.5058		11.2616		4.7863e-002
 367		3.6150e+001	11.4249		11.2518		4.7838e-002
 368		3.6248e+001	11.3439		11.2413		4.7638e-002
 369		3.6346e+001	11.2736		11.2205		4.7465e-002
 370		3.6445e+001	11.1960		11.2088		4.7311e-002
 371		3.6544e+001	11.1243		11.1955		4.7132e-002
 372		3.6642e+001	11.0494		11.1818		4.7458e-002
 373		3.6740e+001	10.9697		11.1677		4.6809e-002
 374		3.6839e+001	10.8828		11.1525		4.6702e-002
 375		3.6938e+001	10.7999		11.1353		4.6666e-002
 376		3.7036e+001	10.7256		11.1212		4.6386e-002
 377		3.7135e+001	10.6559		11.1063		4.6203e-002
 378		3.7233e+001	10.5624		11.0942		4.6081e-002
 379		3.7331e+001	10.4954		11.0770		4.5802e-002
 380		3.7430e+001	10.3939		11.0653		4.5676e-002
 381		3.7529e+001	10.3335		11.0457		4.5511e-002
 382		3.7627e+001	10.2459		11.0304		4.5486e-002
 383		3.7725e+001	10.1736		11.0164		4.5321e-002
 384		3.7824e+001	10.1000		11.0011		4.5038e-002
 385		3.7922e+001	10.0171		10.9831		4.4966e-002
 386		3.8021e+001	9.9428		10.9690		4.4672e-002
 387		3.8120e+001	9.8744		10.9507		4.5045e-002
 388		3.8218e+001	9.7796		10.9366		4.4417e-002
 389		3.8316e+001	9.7092		10.9198		4.4195e-002
 390		3.8415e+001	9.6144		10.8994		4.4113e-002
 391		3.8514e+001	9.5460		10.8849		4.3944e-002
 392		3.8612e+001	9.4618		10.8662		4.3711e-002
 393		3.8711e+001	9.3968		10.8509		4.3482e-002
 394		3.8809e+001	9.3006		10.8376		4.3102e-002
 395		3.8907e+001	9.2283		10.8126		4.3148e-002
 396		3.9006e+001	9.1546		10.7969		4.3069e-002
 397		3.9105e+001	9.0823		10.7793		4.2919e-002
 398		3.9203e+001	8.9961		10.7594		4.2678e-002
 399		3.9301e+001	8.9191		10.7433		4.2499e-002
 400		3.9400e+001	8.8335		10.7246		4.2302e-002
 401		3.9499e+001	8.7745		10.7058		4.2062e-002
 402		3.9597e+001	8.6743		10.6851		4.1954e-002
 403		3.9696e+001	8.6006		10.6679		4.1750e-002
 404		3.9794e+001	8.5164		10.6514		4.1585e-002
 405		3.9892e+001	8.4481		10.6280		4.1405e-002
 406		3.9991e+001	8.3691		10.6088		4.1129e-002
 407		4.0090e+001	8.2855		10.5896		4.1000e-002
 408		4.0188e+001	8.2212		10.5669		4.0968e-002
 409		4.0286e+001	8.1495		10.5474		4.0520e-002
 410		4.0385e+001	8.0474		10.5263		4.0405e-002
 411		4.0483e+001	7.9830		10.5071		4.0258e-002
 412		4.0582e+001	7.8948		10.4852		4.0064e-002
 413		4.0681e+001	7.8198		10.4613		3.9810e-002
 414		4.0779e+001	7.7395		10.4433		3.9641e-002
 415		4.0877e+001	7.6586		10.4195		3.9390e-002
 416		4.0976e+001	7.5830		10.3999		3.9039e-002
 417		4.1075e+001	7.5146		10.3776		3.8981e-002
 418		4.1173e+001	7.4144		10.3542		3.8752e-002
 419		4.1272e+001	7.3468		10.3330		3.8619e-002
 420		4.1370e+001	7.2698		10.3092		3.8340e-002
 421		4.1468e+001	7.1876		10.2822		3.8035e-002
 422		4.1567e+001	7.1139		10.2583		3.7870e-002
 423		4.1666e+001	7.0389		10.2353		3.8028e-002
 424		4.1764e+001	6.9441		10.2126		3.7422e-002
 425		4.1862e+001	6.8704		10.1875		3.7285e-002
 426		4.1961e+001	6.7961		10.1531		3.7009e-002
 427		4.2060e+001	6.7072		10.1363		3.6722e-002
 428		4.2158e+001	6.6329		10.1121		3.6375e-002
 429		4.2257e+001	6.5673		10.0800		3.6231e-002
 430		4.2355e+001	6.4777		10.0624		3.5758e-002
 431		4.2453e+001	6.4047		10.0299		3.5822e-002
 432		4.2552e+001	6.3231		9.9998		3.5704e-002
 433		4.2651e+001	6.2501		9.9712		3.5310e-002
 434		4.2749e+001	6.1519		9.9474		3.5105e-002
 435		4.2847e+001	6.0843		9.9181		3.4868e-002
 436		4.2946e+001	6.0120		9.8879		3.4506e-002
 437		4.3044e+001	5.9423		9.8535		3.3872e-002
 438		4.3143e+001	5.8368		9.8316		3.4090e-002
 439		4.3242e+001	5.7818		9.8019		3.3958e-002
 440		4.3340e+001	5.6942		9.7675		3.3552e-002
 441		4.3438e+001	5.6152		9.7346		3.3212e-002
 442		4.3537e+001	5.5243		9.7049		3.3007e-002
 443		4.3636e+001	5.4474		9.6689		3.2710e-002
 444		4.3734e+001	5.3824		9.6400		3.2262e-002
 445		4.3833e+001	5.3067		9.5969		3.2161e-002
 446		4.3931e+001	5.2112		9.5731		3.1856e-002
 447		4.4029e+001	5.1276		9.5328		3.1598e-002
 448		4.4128e+001	5.0507		9.5023		3.1283e-002
 449		4.4227e+001	4.9996		9.4655		3.0938e-002
 450		4.4325e+001	4.9001		9.4303		3.0644e-002
 451		4.4423e+001	4.8171		9.3959		3.0271e-002
 452		4.4522e+001	4.7461		9.3493		3.0099e-002
 453		4.4621e+001	4.6672		9.3161		2.9773e-002
 454		4.4719e+001	4.5790		9.2742		2.9414e-002
 455		4.4818e+001	4.5033		9.2398		2.9099e-002
 456		4.4916e+001	4.4390		9.1866		2.8733e-002
 457		4.5014e+001	4.3434		9.1502		2.8762e-002
 458		4.5113e+001	4.2784		9.1061		2.8188e-002
 459		4.5212e+001	4.1882		9.0619		2.7794e-002
 460		4.5310e+001	4.1199		9.0165		2.7467e-002
 461		4.5408e+001	4.0383		8.9711		2.7123e-002
 462		4.5507e+001	3.9560		8.9293		2.6765e-002
 463		4.5605e+001	3.8737		8.8796		2.6363e-002
 464		4.5704e+001	3.7974		8.8381		2.6227e-002
 465		4.5803e+001	3.7291		8.7834		2.5847e-002
 466		4.5901e+001	3.6455		8.7360		2.5366e-002
 467		4.5999e+001	3.5633		8.6832		2.5054e-002
 468		4.6098e+001	3.4856		8.6304		2.4595e-002
 469		4.6197e+001	3.3967		8.5725		2.4197e-002
 470		4.6295e+001	3.3244		8.5201		2.3839e-002
 471		4.6394e+001	3.2554		8.4583		2.3473e-002
 472		4.6492e+001	3.1765		8.4094		2.3032e-002
 473		4.6590e+001	3.0922		8.3480		2.2741e-002
 474		4.6689e+001	3.0212		8.2917		2.2228e-002
 475		4.6788e+001	2.9297		8.2287		2.1870e-002
 476		4.6886e+001	2.8514		8.1650		2.1422e-002
 477		4.6984e+001	2.7744		8.0997		2.1110e-002
 478		4.7083e+001	2.6995		8.0347		2.0540e-002
 479		4.7182e+001	2.6491		7.9675		1.9830e-002
 480		4.7280e+001	2.5310		7.9014		1.9700e-002
 481		4.7379e+001	2.4799		7.8263		1.9116e-002
 482		4.7477e+001	2.3877		7.7535		1.8829e-002
 483		4.7575e+001	2.2955		7.6729		1.8302e-002
 484		4.7674e+001	2.2258		7.5959		1.7979e-002
 485		4.7773e+001	2.1475		7.5208		1.7395e-002
 486		4.7871e+001	2.0706		7.4332		1.6929e-002
 487		4.7969e+001	2.0022		7.3514		1.6491e-002
 488		4.8068e+001	1.9027		7.2630		1.6021e-002
 489		4.8166e+001	1.8364		7.1691		1.5501e-002
 490		4.8265e+001	1.7501		7.0815		1.5050e-002
 491		4.8364e+001	1.6844		6.9896		1.4576e-002
 492		4.8462e+001	1.6008		6.8848		1.3884e-002
 493		4.8560e+001	1.5239		6.7811		1.3458e-002
 494		4.8659e+001	1.4430		6.6751		1.2991e-002
 495		4.8758e+001	1.3607		6.5687		1.2418e-002
 496		4.8856e+001	1.2904		6.4573		1.1901e-002
 497		4.8955e+001	1.2101		6.3392		1.1435e-002
 498		4.9053e+001	1.1165		6.2214		1.0861e-002
 499		4.9151e+001	1.0542		6.0986		1.0202e-002
 500		4.9250e+001	0.9746		5.9687		9.7211e-003
 501		4.9349e+001	0.9208		5.8318		9.0829e-003
 502		4.9447e+001	0.8054		5.6996		8.6239e-003
 503		4.9545e+001	0.7371		5.5530		8.1326e-003
 504		4.9644e+001	0.6482		5.4032		7.5266e-003
 505		4.9743e+001	0.5818		5.2428		6.9816e-003
 506		4.9841e+001	0.4949		5.0809		6.3039e-003
 507		4.9940e+001	0.4233		4.9138		5.8413e-003
 508		5.0038e+001	0.3456		4.7343		5.2711e-003
 509		5.0136e+001	0.2727		4.5509		4.6114e-003
 510		5.0235e+001	0.1798		4.3580		4.0807e-003
 511		5.0334e+001	0.1068		4.1609		3.5822e-003
 512		5.0432e+001	0.0299		3.9520		2.9942e-003
 513		5.0531e+001	-0.0312		3.7361		2.3882e-003
 514		5.0629e+001	-0.1261		3.5167		1.7284e-003
 515		5.0727e+001	-0.2030		3.2898		1.1582e-003
 516		5.0826e+001	-0.2793		3.0575		3.4424e-004
 517		5.0925e+001	-0.3596		2.8353		2.5101e-004
 518		5.1023e+001	-0.4491		2.6108		-3.4065e-004
 519		5.1121e+001	-0.5327		2.3887		-8.0681e-004
 520		5.1220e+001	-0.6170		2.1775		-1.3411e-003
 521		5.1319e+001	-0.6721		1.9639		-1.8503e-003
 522		5.1417e+001	-0.7424		1.7304		-2.2734e-003
 523		5.1516e+001	-0.8207		1.4824		-2.7073e-003
 524		5.1614e+001	-0.9182		1.2157		-2.5674e-003
 525		5.1712e+001	-0.9812		0.9250		-3.5069e-003
 526		5.1811e+001	-1.0694		0.6168		-3.7938e-003
 527		5.1910e+001	-1.1418		0.2836		-4.0950e-003
 528		5.2008e+001	-1.2313		-0.0512		-4.3783e-003
 529		5.2106e+001	-1.3016		-0.3904		-4.6723e-003
 530		5.2205e+001	-1.3813		-0.7193		-4.8122e-003
 531		5.2304e+001	-1.4556		-1.0303		-4.9735e-003
 532		5.2402e+001	-1.5518		-1.3209		-5.0094e-003
 533		5.2501e+001	-1.6214		-1.6021		-5.1636e-003
 534		5.2599e+001	-1.7017		-1.8704		-5.0990e-003
 535		5.2697e+001	-1.7786		-2.1250		-5.0811e-003
 536		5.2796e+001	-1.8490		-2.3707		-5.0166e-003
 537		5.2895e+001	-1.9319		-2.6003		-4.9305e-003
 538		5.2993e+001	-2.0082		-2.8232		-4.9341e-003
 539		5.3092e+001	-2.0991		-3.0309		-4.6831e-003
 540		5.3190e+001	-2.1687		-3.2343		-4.7548e-003
 541		5.3288e+001	-2.2411		-3.4295		-4.3568e-003
 542		5.3387e+001	-2.3379		-3.6110		-4.1344e-003
 543		5.3486e+001	-2.4016		-3.7866		-3.9050e-003
 544		5.3584e+001	-2.4878		-3.9638		-3.6468e-003
 545		5.3682e+001	-2.5562		-4.1234		-3.4280e-003
 546		5.3781e+001	-2.6451		-4.2853		-3.0981e-003
 547		5.3880e+001	-2.7154		-4.4425		-2.8938e-003
 548		5.3978e+001	-2.7784		-4.5833		-2.9906e-003
 549		5.4077e+001	-2.8693		-4.7273		-2.2268e-003
 550		5.4175e+001	-2.9529		-4.8661		-1.7606e-003
 551		5.4273e+001	-3.0299		-5.0011		-1.4845e-003
 552		5.4372e+001	-3.1135		-5.1274		-1.1152e-003
 553		5.4471e+001	-3.1898		-5.2530		-8.3908e-004
 554		5.4569e+001	-3.2647		-5.3734		-4.3388e-004
 555		5.4667e+001	-3.3357		-5.4865		-1.2192e-004
 556		5.4766e+001	-3.3934		-5.5972		2.8687e-005
 557		5.4865e+001	-3.5075		-5.7114		7.1358e-004
 558		5.4963e+001	-3.5852		-5.8162		1.1833e-003
 559		5.5062e+001	-3.6601		-5.9238		1.5849e-003
 560		5.5160e+001	-3.7417		-6.0208		1.9399e-003
 561		5.5258e+001	-3.8054		-6.1213		2.2519e-003
 562		5.5357e+001	-3.9003		-6.2124		2.7001e-003
 563		5.5456e+001	-3.9699		-6.3102		3.1268e-003
 564		5.5554e+001	-4.0456		-6.3955		3.6611e-003
 565		5.5653e+001	-4.1292		-6.4901		3.9157e-003
 566		5.5751e+001	-4.2061		-6.5641		4.4823e-003
 567		5.5849e+001	-4.2957		-6.6501		4.7225e-003
 568		5.5948e+001	-4.3673		-6.7346		5.1277e-003
 569		5.6047e+001	-4.4370		-6.8214		5.7122e-003
 570		5.6145e+001	-4.5206		-6.8985		6.0242e-003
 571		5.6243e+001	-4.5922		-6.9658		6.4150e-003
 572		5.6342e+001	-4.6599		-7.0389		6.0995e-003
 573		5.6441e+001	-4.7415		-7.1206		7.2505e-003
 574		5.6539e+001	-4.8377		-7.1891		7.6880e-003
 575		5.6638e+001	-4.9127		-7.2525		8.1326e-003
 576		5.6736e+001	-4.9936		-7.3225		8.4303e-003
 577		5.6834e+001	-5.0606		-7.3897		8.9430e-003
 578		5.6933e+001	-5.1522		-7.4519		9.1797e-003
 579		5.7032e+001	-5.2304		-7.5243		9.7032e-003
 580		5.7130e+001	-5.3094		-7.5837		1.0377e-002
 581		5.7228e+001	-5.3777		-7.6452		1.0503e-002
 582		5.7327e+001	-5.4779		-7.7070		1.0955e-002
 583		5.7426e+001	-5.5555		-7.7680		1.1378e-002
 584		5.7524e+001	-5.6278		-7.8282		1.1722e-002
 585		5.7623e+001	-5.6988		-7.8830		1.2138e-002
 586		5.7721e+001	-5.7871		-7.9389		1.2367e-002
 587		5.7819e+001	-5.8713		-7.9948		1.2873e-002
 588		5.7918e+001	-5.9383		-8.0508		1.3060e-002
 589		5.8017e+001	-6.0239		-8.1063		1.3680e-002
 590		5.8115e+001	-6.1035		-8.1552		1.4071e-002
 591		5.8214e+001	-6.1752		-8.2076		1.4497e-002
 592		5.8312e+001	-6.2667		-8.2585		1.4817e-002
 593		5.8410e+001	-6.3185		-8.3074		1.5290e-002
 594		5.8509e+001	-6.4286		-8.3562		1.5562e-002
 595		5.8608e+001	-6.4903		-8.4004		1.5935e-002
 596		5.8706e+001	-6.5792		-8.4482		1.6839e-002
 597		5.8804e+001	-6.6528		-8.4986		1.6685e-002
 598		5.8903e+001	-6.7318		-8.5412		1.7076e-002
 599		5.9002e+001	-6.8021		-8.5890		1.7459e-002
 600		5.9100e+001	-6.8797		-8.6308		1.7832e-002
 601		5.9199e+001	-6.9600		-8.6750		1.8162e-002
 602		5.9297e+001	-7.0389		-8.7223		1.8503e-002
 603		5.9395e+001	-7.1159		-8.7607		1.8693e-002
 604		5.9494e+001	-7.1949		-8.8021		1.9492e-002
 605		5.9593e+001	-7.2711		-8.8456		1.9525e-002
 606		5.9691e+001	-7.3527		-8.8909		1.9901e-002
 607		5.9789e+001	-7.4423		-8.9281		2.0263e-002
 608		5.9888e+001	-7.5153		-8.9641		2.0640e-002
 609		5.9986e+001	-7.5783		-9.0020		2.0895e-002
 610		6.0085e+001	-7.6765		-9.0458		2.1106e-002
 611		6.0184e+001	-7.7422		-9.0877		2.1465e-002
 612		6.0282e+001	-7.8351		-9.1209		2.1859e-002
 613		6.0380e+001	-7.9054		-9.1565		2.2200e-002
 614		6.0479e+001	-7.9857		-9.1890		2.2515e-002
 615		6.0578e+001	-8.0573		-9.2281		2.2924e-002
 616		6.0676e+001	-8.1422		-9.2660		2.3243e-002
 617		6.0775e+001	-8.2198		-9.3012		2.3494e-002
 618		6.0873e+001	-8.2968		-9.3329		2.3882e-002
 619		6.0971e+001	-8.3718		-9.3665		2.4021e-002
 620		6.1070e+001	-8.4467		-9.4025		2.4746e-002
 621		6.1169e+001	-8.5290		-9.4385		2.4656e-002
 622		6.1267e+001	-8.6179		-9.4725		2.5029e-002
 623		6.1365e+001	-8.6809		-9.5031		2.5294e-002
 624		6.1464e+001	-8.7771		-9.5312		2.5674e-002
 625		6.1563e+001	-8.8388		-9.5641		2.5925e-002
 626		6.1661e+001	-8.9324		-9.6012		2.6083e-002
 627		6.1760e+001	-8.9954		-9.6349		2.6553e-002
 628		6.1858e+001	-9.0564		-9.6634		2.6141e-002
 629		6.1956e+001	-9.1606		-9.6881		2.7055e-002
 630		6.2055e+001	-9.2342		-9.7283		2.7331e-002
 631		6.2154e+001	-9.3171		-9.7499		2.7636e-002
 632		6.2252e+001	-9.3961		-9.7808		2.7898e-002
 633		6.2350e+001	-9.4697		-9.8128		2.8145e-002
 634		6.2449e+001	-9.5593		-9.8394		2.8253e-002
 635		6.2547e+001	-9.6409		-9.8746		2.8694e-002
 636		6.2646e+001	-9.7318		-9.9040		2.9658e-002
 637		6.2745e+001	-9.7762		-9.9274		2.9206e-002
 638		6.2843e+001	-9.8685		-9.9548		2.9587e-002
 639		6.2941e+001	-9.9428		-9.9826		2.9823e-002
 640		6.3040e+001	-10.0224		-10.0092		2.9999e-002
 641		6.3139e+001	-10.0947		-10.0405		3.0282e-002
 642		6.3237e+001	-10.1610		-10.0647		3.0497e-002
 643		6.3336e+001	-10.2393		-10.0933		3.0763e-002
 644		6.3434e+001	-10.3096		-10.1199		3.0687e-002
 645		6.3532e+001	-10.4052		-10.1465		3.1383e-002
 646		6.3631e+001	-10.4914		-10.1699		3.1659e-002
 647		6.3730e+001	-10.5664		-10.1918		3.1889e-002
 648		6.3828e+001	-10.6526		-10.2243		3.2097e-002
 649		6.3926e+001	-10.7276		-10.2407		3.2344e-002
 650		6.4025e+001	-10.8032		-10.2681		3.2520e-002
 651		6.4124e+001	-10.8662		-10.2971		3.2728e-002
 652		6.4222e+001	-10.9452		-10.3170		3.3011e-002
 653		6.4320e+001	-11.0361		-10.3467		3.3262e-002
 654		6.4419e+001	-11.1203		-10.3671		3.3631e-002
 655		6.4517e+001	-11.1986		-10.3964		3.3786e-002
 656		6.4616e+001	-11.2743		-10.4171		3.4054e-002
 657		6.4715e+001	-11.3439		-10.4410		3.4359e-002
 658		6.4813e+001	-11.4209		-10.4629		3.4485e-002
 659		6.4912e+001	-11.4779		-10.4899		3.4133e-002
 660		6.5010e+001	-11.5708		-10.5094		3.4987e-002
 661		6.5109e+001	-11.6604		-10.5337		3.5127e-002
 662		6.5207e+001	-11.7532		-10.5536		3.5388e-002
 663		6.5305e+001	-11.8335		-10.5759		3.5690e-002
 664		6.5404e+001	-11.9038		-10.6002		3.5837e-002
 665		6.5502e+001	-11.9662		-10.6205		3.5976e-002
 666		6.5601e+001	-12.0611		-10.6417		3.6184e-002
 667		6.5700e+001	-12.1341		-10.6663		3.6410e-002
 668		6.5798e+001	-12.2090		-10.6859		3.6730e-002
 669		6.5897e+001	-12.2926		-10.7078		3.6988e-002
 670		6.5995e+001	-12.3848		-10.7289		3.7185e-002
 671		6.6094e+001	-12.4545		-10.7500		3.7303e-002
 672		6.6192e+001	-12.5321		-10.7696		3.7622e-002
 673		6.6290e+001	-12.5931		-10.7938		3.7647e-002
 674		6.6389e+001	-12.6834		-10.8165		3.7651e-002
 675		6.6487e+001	-12.7510		-10.8349		3.8164e-002
 676		6.6586e+001	-12.8472		-10.8533		3.8426e-002
 677		6.6685e+001	-12.9096		-10.8709		3.8634e-002
 678		6.6783e+001	-13.0025		-10.8951		3.8834e-002
 679		6.6882e+001	-13.0715		-10.9092		3.8974e-002
 680		6.6980e+001	-13.1491		-10.9299		3.9121e-002
 681		6.7079e+001	-13.2267		-10.9534		3.9444e-002
 682		6.7177e+001	-13.3077		-10.9698		3.9699e-002
 683		6.7275e+001	-13.3946		-10.9925		3.9792e-002
 684		6.7374e+001	-13.4596		-11.0097		4.0050e-002
 685		6.7472e+001	-13.5458		-11.0269		4.0244e-002
 686		6.7571e+001	-13.6327		-11.0484		4.0434e-002
 687		6.7669e+001	-13.7097		-11.0672		4.0627e-002
 688		6.7768e+001	-13.7873		-11.0813		4.0789e-002
 689		6.7867e+001	-13.8510		-11.0997		4.0932e-002
 690		6.7965e+001	-13.9419		-11.1192		4.0434e-002
 691		6.8064e+001	-14.0228		-11.1368		4.1298e-002
 692		6.8162e+001	-14.0945		-11.1580		4.1556e-002
 693		6.8260e+001	-14.1741		-11.1756		4.1721e-002
 694		6.8359e+001	-14.2650		-11.1932		4.1976e-002
 695		6.8457e+001	-14.3207		-11.2143		4.2191e-002
 696		6.8556e+001	-14.4056		-11.2272		4.2184e-002
 697		6.8654e+001	-14.4706		-11.2436		4.2442e-002
 698		6.8753e+001	-14.5595		-11.2612		4.2833e-002
 699		6.8852e+001	-14.6385		-11.2784		4.2790e-002
 700		6.8950e+001	-14.7254		-11.3015		4.2954e-002
 701		6.9049e+001	-14.8010		-11.3175		4.3145e-002
 702		6.9147e+001	-14.8879		-11.3297		4.3331e-002
 703		6.9246e+001	-14.9549		-11.3480		4.3517e-002
 704		6.9344e+001	-15.0379		-11.3660		4.3682e-002
 705		6.9442e+001	-15.0996		-11.3813		4.3711e-002
 706		6.9541e+001	-15.2051		-11.3969		4.4009e-002
 707		6.9639e+001	-15.2641		-11.4126		4.4206e-002
 708		6.9738e+001	-15.3537		-11.4263		4.4292e-002
 709		6.9837e+001	-15.4353		-11.4486		4.4647e-002
 710		6.9935e+001	-15.5096		-11.4634		4.4712e-002
 711		7.0034e+001	-15.5872		-11.4849		4.4801e-002
 712		7.0132e+001	-15.6582		-11.4943		4.4934e-002
 713		7.0231e+001	-15.7185		-11.5096		4.4765e-002
 714		7.0329e+001	-15.8214		-11.5295		4.5332e-002
 715		7.0427e+001	-15.8937		-11.5432		4.5569e-002
 716		7.0526e+001	-15.9726		-11.5628		4.5708e-002
 717		7.0624e+001	-16.0576		-11.5769		4.5877e-002
 718		7.0723e+001	-16.1418		-11.5882		4.6028e-002
 719		7.0822e+001	-16.2135		-11.6113		4.6099e-002
 720		7.0920e+001	-16.2898		-11.6230		4.6207e-002
 721		7.1019e+001	-16.3534		-11.6410		4.6339e-002
 722		7.1117e+001	-16.4656		-11.6524		4.6641e-002
 723		7.1216e+001	-16.5392		-11.6660		4.6838e-002
 724		7.1314e+001	-16.6082		-11.6797		4.7017e-002
 725		7.1412e+001	-16.6759		-11.6969		4.7103e-002
 726		7.1511e+001	-16.7687		-11.7134		4.7304e-002
 727		7.1609e+001	-16.8450		-11.7274		4.7383e-002
 728		7.1708e+001	-16.9300		-11.7415		4.8222e-002
 729		7.1807e+001	-16.9943		-11.7603		4.7785e-002
 730		7.1905e+001	-17.0892		-11.7658		4.7957e-002
 731		7.2004e+001	-17.1622		-11.7826		4.8089e-002
 732		7.2102e+001	-17.2398		-11.7959		4.8208e-002
 733		7.2201e+001	-17.3234		-11.8135		4.8351e-002
 734		7.2299e+001	-17.3970		-11.8248		4.8426e-002
 735		7.2397e+001	-17.4786		-11.8413		4.8423e-002
 736		7.2496e+001	-17.5556		-11.8561		4.8789e-002
 737		7.2594e+001	-17.6193		-11.8702		4.8979e-002
 738		7.2693e+001	-17.7128		-11.8792		4.9158e-002
 739		7.2791e+001	-17.7931		-11.9023		4.9255e-002
 740		7.2890e+001	-17.8753		-11.9101		4.9391e-002
 741		7.2989e+001	-17.9410		-11.9230		4.9520e-002
 742		7.3087e+001	-18.0239		-11.9363		4.9760e-002
 743		7.3186e+001	-18.1115		-11.9500		4.9868e-002
 744		7.3284e+001	-18.1865		-11.9664		5.0022e-002
 745		7.3382e+001	-18.2694		-11.9817		5.0072e-002
 746		7.3481e+001	-18.3464		-11.9895		5.0298e-002
 747		7.3579e+001	-18.4193		-11.9989		5.0388e-002
 748		7.3678e+001	-18.5003		-12.0173		5.0603e-002
 749		7.3776e+001	-18.5713		-12.0345		5.0668e-002
 750		7.3875e+001	-18.6489		-12.0466		5.0764e-002
 751		7.3974e+001	-18.7285		-12.0603		5.0951e-002
 752		7.4072e+001	-18.8247		-12.0685		5.1166e-002
 753		7.4171e+001	-18.8811		-12.0865		5.1270e-002
 754		7.4269e+001	-18.9726		-12.0998		5.1356e-002
 755		7.4368e+001	-19.0397		-12.1108		5.1302e-002
 756		7.4466e+001	-19.1213		-12.1241		5.1625e-002
 757		7.4564e+001	-19.1830		-12.1378		5.1485e-002
 758		7.4663e+001	-19.2984		-12.1464		5.1822e-002
 759		7.4761e+001	-19.3594		-12.1608		5.2062e-002
 760		7.4860e+001	-19.4377		-12.1737		5.2156e-002
 761		7.4959e+001	-19.5107		-12.1839		5.2313e-002
 762		7.5057e+001	-19.5976		-12.1976		5.2335e-002
 763		7.5156e+001	-19.6553		-12.2101		5.2468e-002
 764		7.5254e+001	-19.7130		-12.2175		5.2930e-002
 765		7.5353e+001	-19.7084		-12.2234		5.2755e-002
 766		7.5451e+001	-19.7064		-12.2305		5.2941e-002
 767		7.5549e+001	-19.6832		-12.2277		5.3016e-002
 768		7.5648e+001	-19.6553		-12.2293		5.3131e-002
 769		7.5746e+001	-19.6122		-12.2261		5.3142e-002
 770		7.5845e+001	-19.5790		-12.2234		5.3296e-002
 771		7.5944e+001	-19.5074		-12.2246		5.3317e-002
 772		7.6042e+001	-19.4676		-12.2250		5.3457e-002
 773		7.6141e+001	-19.3999		-12.2195		5.3508e-002
 774		7.6239e+001	-19.3408		-12.2191		5.3658e-002
 775		7.6338e+001	-19.2785		-12.2160		5.3586e-002
 776		7.6436e+001	-19.2082		-12.2082		5.3565e-002
 777		7.6534e+001	-19.1226		-12.2078		5.3687e-002
 778		7.6633e+001	-19.0695		-12.1960		5.3733e-002
 779		7.6731e+001	-18.9826		-12.1964		5.3447e-002
 780		7.6830e+001	-18.9262		-12.1882		5.3698e-002
 781		7.6929e+001	-18.8320		-12.1851		5.3705e-002
 782		7.7027e+001	-18.7736		-12.1702		5.3784e-002
 783		7.7126e+001	-18.7006		-12.1687		5.3802e-002
 784		7.7224e+001	-18.6250		-12.1628		5.3726e-002
 785		7.7323e+001	-18.5328		-12.1569		5.3572e-002
 786		7.7421e+001	-18.4618		-12.1518		5.3644e-002
 787		7.7519e+001	-18.3683		-12.1440		5.3343e-002
 788		7.7618e+001	-18.3013		-12.1405		5.3669e-002
 789		7.7716e+001	-18.2303		-12.1291		5.3647e-002
 790		7.7815e+001	-18.1500		-12.1241		5.3662e-002
 791		7.7913e+001	-18.0704		-12.1147		5.3565e-002
 792		7.8012e+001	-17.9974		-12.1104		5.3551e-002
 793		7.8111e+001	-17.9025		-12.1045		5.3386e-002
 794		7.8209e+001	-17.8408		-12.0975		5.3425e-002
 795		7.8308e+001	-17.7732		-12.0893		5.3364e-002
 796		7.8406e+001	-17.6909		-12.0791		5.3375e-002
 797		7.8504e+001	-17.6060		-12.0716		5.3239e-002
 798		7.8603e+001	-17.5323		-12.0677		5.3196e-002
 799		7.8701e+001	-17.4580		-12.0603		5.3106e-002
 800		7.8800e+001	-17.3778		-12.0494		5.3120e-002
 801		7.8898e+001	-17.2829		-12.0443		5.2952e-002
 802		7.8997e+001	-17.1814		-12.0361		5.2278e-002
 803		7.9096e+001	-17.1369		-12.0290		5.2755e-002
 804		7.9194e+001	-17.0706		-12.0169		5.2582e-002
 805		7.9293e+001	-16.9784		-12.0138		5.2633e-002
 806		7.9391e+001	-16.9120		-12.0028		5.2525e-002
 807		7.9490e+001	-16.8251		-11.9946		5.2446e-002
 808		7.9588e+001	-16.7502		-11.9868		5.2296e-002
 809		7.9686e+001	-16.6513		-11.9805		5.2213e-002
 810		7.9785e+001	-16.5850		-11.9664		5.2174e-002
 811		7.9883e+001	-16.5093		-11.9551		5.2088e-002
 812		7.9982e+001	-16.4277		-11.9500		5.1991e-002
 813		8.0081e+001	-16.3468		-11.9449		5.1941e-002
 814		8.0179e+001	-16.2698		-11.9297		5.1808e-002
 815		8.0278e+001	-16.1909		-11.9242		5.1740e-002
 816		8.0376e+001	-16.1120		-11.9093		5.1492e-002
 817		8.0475e+001	-16.0430		-11.9082		5.1772e-002
 818		8.0573e+001	-15.9614		-11.8960		5.1406e-002
 819		8.0671e+001	-15.8711		-11.8855		5.1331e-002
 820		8.0770e+001	-15.8008		-11.8745		5.1220e-002
 821		8.0868e+001	-15.7099		-11.8651		5.1066e-002
 822		8.0967e+001	-15.6363		-11.8581		5.0865e-002
 823		8.1066e+001	-15.5593		-11.8460		5.0714e-002
 824		8.1164e+001	-15.4784		-11.8432		5.0560e-002
 825		8.1263e+001	-15.4054		-11.8319		5.0628e-002
 826		8.1361e+001	-15.3258		-11.8217		5.0478e-002
 827		8.1460e+001	-15.2508		-11.8112		5.0413e-002
 828		8.1558e+001	-15.1679		-11.8006		5.0348e-002
 829		8.1656e+001	-15.0883		-11.7853		5.0219e-002
 830		8.1755e+001	-15.0146		-11.7795		5.0004e-002
 831		8.1853e+001	-14.9277		-11.7693		4.9814e-002
 832		8.1952e+001	-14.8488		-11.7627		4.9782e-002
 833		8.2051e+001	-14.7685		-11.7470		4.9667e-002
 834		8.2149e+001	-14.6982		-11.7396		4.9595e-002
 835		8.2248e+001	-14.6192		-11.7353		4.9470e-002
 836		8.2346e+001	-14.5436		-11.7188		4.9319e-002
 837		8.2445e+001	-14.4600		-11.7118		4.9344e-002
 838		8.2543e+001	-14.3851		-11.6977		4.8957e-002
 839		8.2641e+001	-14.2962		-11.6876		4.8989e-002
 840		8.2740e+001	-14.2172		-11.6789		4.8828e-002
 841		8.2838e+001	-14.1449		-11.6668		4.8692e-002
 842		8.2937e+001	-14.0839		-11.6590		4.8552e-002
 843		8.3035e+001	-13.9963		-11.6426		4.8520e-002
 844		8.3134e+001	-13.9067		-11.6340		4.8394e-002
 845		8.3233e+001	-13.8324		-11.6234		4.8122e-002
 846		8.3331e+001	-13.7694		-11.6074		4.8147e-002
 847		8.3430e+001	-13.6772		-11.6015		4.7971e-002
 848		8.3528e+001	-13.6069		-11.5890		4.7942e-002
 849		8.3626e+001	-13.5193		-11.5792		4.7727e-002
 850		8.3725e+001	-13.4536		-11.5667		4.7551e-002
 851		8.3823e+001	-13.3654		-11.5577		4.7404e-002
 852		8.3922e+001	-13.2884		-11.5397		4.7207e-002
 853		8.4020e+001	-13.1995		-11.5327		4.7265e-002
 854		8.4119e+001	-13.1186		-11.5194		4.7032e-002
 855		8.4218e+001	-13.0562		-11.5096		4.7057e-002
 856		8.4316e+001	-12.9779		-11.4998		4.6831e-002
 857		8.4415e+001	-12.8923		-11.4873		4.6565e-002
 858		8.4513e+001	-12.8287		-11.4744		4.6343e-002
 859		8.4612e+001	-12.7291		-11.4630		4.6228e-002
 860		8.4710e+001	-12.6456		-11.4458		4.6512e-002
 861		8.4808e+001	-12.5706		-11.4400		4.6053e-002
 862		8.4907e+001	-12.5122		-11.4247		4.5859e-002
 863		8.5005e+001	-12.4313		-11.4169		4.5798e-002
 864		8.5104e+001	-12.3576		-11.4024		4.5694e-002
 865		8.5203e+001	-12.2555		-11.3903		4.5382e-002
 866		8.5301e+001	-12.1818		-11.3715		4.5364e-002
 867		8.5400e+001	-12.1148		-11.3606		4.4805e-002
 868		8.5498e+001	-12.0299		-11.3508		4.5153e-002
 869		8.5597e+001	-11.9463		-11.3367		4.4984e-002
 870		8.5695e+001	-11.8833		-11.3238		4.4884e-002
 871		8.5793e+001	-11.7997		-11.3046		4.4676e-002
 872		8.5892e+001	-11.7188		-11.2964		4.4425e-002
 873		8.5990e+001	-11.6365		-11.2796		4.4335e-002
 874		8.6089e+001	-11.5423		-11.2667		4.3937e-002
 875		8.6188e+001	-11.4812		-11.2538		4.4084e-002
 876		8.6286e+001	-11.4049		-11.2393		4.4012e-002
 877		8.6385e+001	-11.3207		-11.2311		4.3894e-002
 878		8.6483e+001	-11.2530		-11.2068		4.3621e-002
 879		8.6582e+001	-11.1701		-11.2006		4.3550e-002
 880		8.6680e+001	-11.0852		-11.1799		4.3353e-002
 881		8.6778e+001	-10.9943		-11.1701		4.3245e-002
 882		8.6877e+001	-10.9253		-11.1548		4.3066e-002
 883		8.6975e+001	-10.8510		-11.1443		4.2940e-002
 884		8.7074e+001	-10.7767		-11.1228		4.2793e-002
 885		8.7172e+001	-10.6865		-11.1114		4.2721e-002
 886		8.7271e+001	-10.6201		-11.0922		4.2485e-002
 887		8.7370e+001	-10.5491		-11.0793		4.2184e-002
 888		8.7468e+001	-10.4569		-11.0684		4.2083e-002
 889		8.7567e+001	-10.3773		-11.0551		4.2313e-002
 890		8.7665e+001	-10.2970		-11.0375		4.1807e-002
 891		8.7763e+001	-10.2201		-11.0211		4.1721e-002
 892		8.7862e+001	-10.1557		-11.0074		4.1527e-002
 893		8.7960e+001	-10.0608		-10.9866		4.1366e-002
 894		8.8059e+001	-9.9938		-10.9710		4.1133e-002
 895		8.8157e+001	-9.9109		-10.9546		4.1000e-002
 896		8.8256e+001	-9.8287		-10.9385		4.0810e-002
 897		8.8355e+001	-9.7444		-10.9213		4.0656e-002
 898		8.8453e+001	-9.6767		-10.9088		4.0509e-002
 899		8.8552e+001	-9.5991		-10.8881		4.0362e-002
 900		8.8650e+001	-9.5235		-10.8713		4.0100e-002
 901		8.8749e+001	-9.4359		-10.8556		4.0011e-002
 902		8.8847e+001	-9.3669		-10.8388		3.9907e-002
 903		8.8945e+001	-9.2740		-10.8184		3.9645e-002
 904		8.9044e+001	-9.2117		-10.8036		3.9720e-002
 905		8.9142e+001	-9.1135		-10.7844		3.9293e-002
 906		8.9241e+001	-9.0584		-10.7660		3.9186e-002
 907		8.9340e+001	-8.9702		-10.7426		3.9003e-002
 908		8.9438e+001	-8.8853		-10.7281		3.8763e-002
 909		8.9537e+001	-8.8037		-10.7124		3.8479e-002
 910		8.9635e+001	-8.7380		-10.6909		3.8361e-002
 911		8.9734e+001	-8.6531		-10.6722		3.8372e-002
 912		8.9832e+001	-8.5748		-10.6538		3.7992e-002
 913		8.9930e+001	-8.4912		-10.6374		3.7812e-002
 914		9.0029e+001	-8.4202		-10.6178		3.7712e-002
 915		9.0127e+001	-8.3439		-10.5951		3.7511e-002
 916		9.0226e+001	-8.2583		-10.5756		3.7332e-002
 917		9.0325e+001	-8.1834		-10.5580		3.7034e-002
 918		9.0423e+001	-8.1064		-10.5337		3.6776e-002
 919		9.0522e+001	-8.0142		-10.5161		3.6633e-002
 920		9.0620e+001	-7.9551		-10.4930		3.6543e-002
 921		9.0719e+001	-7.8616		-10.4774		3.6367e-002
 922		9.0817e+001	-7.7939		-10.4469		3.6131e-002
 923		9.0915e+001	-7.7123		-10.4340		3.5898e-002
 924		9.1014e+001	-7.6274		-10.4078		3.5647e-002
 925		9.1112e+001	-7.5438		-10.3847		3.5514e-002
 926		9.1211e+001	-7.4735		-10.3608		3.5299e-002
 927		9.1310e+001	-7.3872		-10.3362		3.5008e-002
 928		9.1408e+001	-7.3236		-10.3158		3.4883e-002
 929		9.1507e+001	-7.2393		-10.2885		3.4628e-002
 930		9.1605e+001	-7.1590		-10.2732		3.4384e-002
 931		9.1704e+001	-7.0807		-10.2462		3.4158e-002
 932		9.1802e+001	-6.9985		-10.2200		3.3825e-002
 933		9.1900e+001	-6.9129		-10.1958		3.3760e-002
 934		9.1999e+001	-6.8393		-10.1742		3.3563e-002
 935		9.2097e+001	-6.7650		-10.1461		3.3391e-002
 936		9.2196e+001	-6.6800		-10.1203		3.3129e-002
 937		9.2294e+001	-6.6097		-10.0941		3.2846e-002
 938		9.2393e+001	-6.5274		-10.0675		3.2591e-002
 939		9.2492e+001	-6.4638		-10.0448		3.2652e-002
 940		9.2590e+001	-6.3735		-10.0123		3.2165e-002
 941		9.2689e+001	-6.2959		-9.9857		3.1957e-002
 942		9.2787e+001	-6.2203		-9.9638		3.1734e-002
 943		9.2885e+001	-6.1387		-9.9294		3.1451e-002
 944		9.2984e+001	-6.0664		-9.8973		3.1189e-002
 945		9.3082e+001	-5.9635		-9.8742		3.0899e-002
 946		9.3181e+001	-5.9012		-9.8426		3.0558e-002
 947		9.3279e+001	-5.8249		-9.8136		3.0472e-002
 948		9.3378e+001	-5.7459		-9.7792		3.0121e-002
 949		9.3477e+001	-5.6683		-9.7495		2.9967e-002
 950		9.3575e+001	-5.5821		-9.7100		2.9680e-002
 951		9.3674e+001	-5.4991		-9.6810		2.9436e-002
 952		9.3772e+001	-5.4215		-9.6482		2.9138e-002
 953		9.3871e+001	-5.3346		-9.6188		2.9249e-002
 954		9.3969e+001	-5.2610		-9.5899		2.8572e-002
 955		9.4067e+001	-5.1913		-9.5508		2.8371e-002
 956		9.4166e+001	-5.1177		-9.5148		2.8045e-002
 957		9.4264e+001	-5.0261		-9.4796		2.7718e-002
 958		9.4363e+001	-4.9511		-9.4452		2.7406e-002
 959		9.4462e+001	-4.8695		-9.4076		2.6990e-002
 960		9.4560e+001	-4.7986		-9.3677		2.6951e-002
 961		9.4659e+001	-4.7070		-9.3349		2.6506e-002
 962		9.4757e+001	-4.6327		-9.2934		2.6323e-002
 963		9.4856e+001	-4.5518		-9.2566		2.5750e-002
 964		9.4954e+001	-4.4854		-9.2148		2.5603e-002
 965		9.5052e+001	-4.3912		-9.1722		2.5208e-002
 966		9.5151e+001	-4.3109		-9.1346		2.4814e-002
 967		9.5249e+001	-4.2400		-9.0896		2.4577e-002
 968		9.5348e+001	-4.1603		-9.0458		2.4287e-002
 969		9.5447e+001	-4.0814		-9.0028		2.4061e-002
 970		9.5545e+001	-4.0144		-8.9543		2.3677e-002
 971		9.5644e+001	-3.9242		-8.9066		2.3164e-002
 972		9.5742e+001	-3.8446		-8.8585		2.2942e-002
 973		9.5841e+001	-3.7610		-8.8076		2.2469e-002
 974		9.5939e+001	-3.6853		-8.7665		2.2243e-002
 975		9.6037e+001	-3.6117		-8.7118		2.1805e-002
 976		9.6136e+001	-3.5367		-8.6629		2.1486e-002
 977		9.6234e+001	-3.4571		-8.6074		2.1113e-002
 978		9.6333e+001	-3.3755		-8.5616		2.0744e-002
 979		9.6432e+001	-3.2873		-8.5025		2.0278e-002
 980		9.6530e+001	-3.2176		-8.4478		1.9851e-002
 981		9.6629e+001	-3.1274		-8.3895		1.9378e-002
 982		9.6727e+001	-3.0657		-8.3316		1.9227e-002
 983		9.6826e+001	-2.9715		-8.2721		1.8750e-002
 984		9.6924e+001	-2.8959		-8.2135		1.8438e-002
 985		9.7022e+001	-2.8189		-8.1470		1.7965e-002
 986		9.7121e+001	-2.7439		-8.0840		1.7610e-002
 987		9.7219e+001	-2.6716		-8.0179		1.7208e-002
 988		9.7318e+001	-2.5887		-7.9475		1.6882e-002
 989		9.7416e+001	-2.5157		-7.8834		1.6337e-002
 990		9.7515e+001	-2.4295		-7.8043		1.5900e-002
 991		9.7614e+001	-2.3532		-7.7343		1.5519e-002
 992		9.7712e+001	-2.2901		-7.6643		1.5042e-002
 993		9.7811e+001	-2.1886		-7.5845		1.4644e-002
 994		9.7909e+001	-2.1097		-7.5055		1.4060e-002
 995		9.8007e+001	-2.0387		-7.4206		1.3619e-002
 996		9.8106e+001	-1.9671		-7.3342		1.3239e-002
 997		9.8204e+001	-1.8828		-7.2528		1.2726e-002
 998		9.8303e+001	-1.8052		-7.1656		1.2353e-002
 999		9.8401e+001	-1.7408		-7.0682		1.1812e-002
1000		9.8500e+001	-1.6592		-6.9689		1.1349e-002
1001		9.8599e+001	-1.5630		-6.8762		1.0732e-002
1002		9.8697e+001	-1.4874		-6.7780		1.0234e-002
1003		9.8796e+001	-1.3978		-6.6704		9.6243e-003
1004		9.8894e+001	-1.3302		-6.5664		9.4379e-003
1005		9.8993e+001	-1.2472		-6.4545		8.9251e-003
1006		9.9091e+001	-1.1889		-6.3466		8.3549e-003
1007		9.9189e+001	-1.0986		-6.2199		7.9031e-003
1008		9.9288e+001	-1.0276		-6.0951		7.2684e-003
1009		9.9386e+001	-0.9321		-5.9707		6.7844e-003
1010		9.9485e+001	-0.8558		-5.8408		6.4007e-003
1011		9.9584e+001	-0.7775		-5.7008		5.7265e-003
1012		9.9682e+001	-0.7032		-5.5549		5.2425e-003
1013		9.9781e+001	-0.6276		-5.4063		4.7369e-003
1014		9.9879e+001	-0.5553		-5.2483		4.1954e-003
1015		9.9978e+001	-0.4823		-5.0899		3.5643e-003
1016		1.0008e+002	-0.3894		-4.9213		3.0408e-003
1017		1.0017e+002	-0.3171		-4.7429		2.4455e-003

PMax (µC/cm2):		1.22e+001
Pr (µC/cm2):		3.85e+000
-Pr (µC/cm2):		-4.74e+000
Vc:			1.20e+002
-Vc:			-1.40e+002
C (Max-Eff) (nF):	5.45e+000
Vert. Eccentricity (µC/cm2):	-4.48e-001

Horiz. Eccentricity (Volts):	-9.98e+000

Offset (µC/cm2):	2.98e+000



Hysteresis Version: 4.6.11 - Radiant Technologies, Inc., 1999 - 12/12/11

